Data from FLMT087451__21__14-11-13-290.txt Node

Date: Tue Jun 04 14:11:13 JST 2024
User: power
Spectrometer: FLMT08745
Trigger mode: 0
Integration Time (sec): 2.000000E0
Scans to average: 5
Electric dark correction enabled: true
Nonlinearity correction enabled: false
Boxcar width: 0
XAxis mode: Wavelengths
Number of Pixels in Spectrum: 3648
>>>>>Begin Spectral Data<<<<<
194.923	-1700.59
195.148	-1700.59
195.372	-1700.59
195.597	-1714.84
195.821	-1727.47
196.046	471.83
196.271	235.2
196.495	-572.02
196.72	-488.94
196.944	146.01
197.169	280.41
197.393	-79.62
197.618	-330.91
197.842	434.36
198.067	639.22
198.291	-737.38
198.516	1.83
198.74	305.25
198.964	1048.13
199.189	-401.37
199.413	392.82
199.637	343.13
199.862	398.52
200.086	-139.49
200.31	-237.65
200.535	192.03
200.759	754.07
200.983	-473.87
201.207	-458.39
201.432	973.19
201.656	511.34
201.88	-96.32
202.104	-741.45
202.328	332.95
202.552	376.94
202.777	-165.15
203.001	-655.11
203.225	516.63
203.449	33.6
203.673	50.71
203.897	-440.47
204.121	234.8
204.345	776.88
204.569	-615.19
204.793	-163.52
205.017	655.51
205.241	405.04
205.465	-412.37
205.689	-429.88
205.912	523.96
206.136	497.49
206.36	-526.81
206.584	-356.16
206.808	297.11
207.032	861.19
207.255	-50.3
207.479	-391.6
207.703	393.23
207.927	476.72
208.15	-324.4
208.374	-288.96
208.598	148.86
208.822	332.54
209.045	-498.3
209.269	-361.05
209.492	526
209.716	566.32
209.94	-277.56
210.163	-235.61
210.387	417.66
210.61	838.79
210.834	-49.48
211.057	-135.83
211.281	138.68
211.504	354.94
211.728	-248.24
211.951	-179
212.175	607.45
212.398	409.52
212.622	-596.46
212.845	636.37
213.068	608.27
213.292	746.74
213.515	-235.61
213.738	-321.95
213.962	533.74
214.185	534.55
214.408	-136.23
214.631	23.83
214.855	475.5
215.078	299.15
215.301	-187.55
215.524	-413.18
215.747	466.54
215.971	369.6
216.194	-311.36
216.417	-396.08
216.64	589.13
216.863	980.11
217.086	-319.1
217.309	-654.29
217.532	318.29
217.755	246.61
217.978	-419.29
218.201	85.73
218.424	378.56
218.647	422.14
218.87	-317.88
219.093	-258.42
219.316	864.45
219.539	540.25
219.762	-625.78
219.985	-595.64
220.207	-126.46
220.43	261.68
220.653	-368.38
220.876	-467.35
221.099	731.67
221.321	416.44
221.544	-376.53
221.767	-384.67
221.99	571.61
222.212	714.98
222.435	-180.22
222.658	-153.34
222.88	495.86
223.103	646.55
223.326	-472.24
223.548	-451.87
223.771	635.15
223.993	360.24
224.216	-517.85
224.438	-343.13
224.661	472.65
224.883	588.72
225.106	-280.41
225.328	-475.09
225.551	774.85
225.773	405.44
225.996	-370.42
226.218	-357.79
226.44	371.23
226.663	514.59
226.885	-427.84
227.108	-297.92
227.33	1029.8
227.552	798.47
227.774	-303.63
227.997	-295.48
228.219	941.42
228.441	705.2
228.663	-303.63
228.886	-605.83
229.108	503.6
229.33	482.42
229.552	-558.58
229.774	-565.5
229.996	340.69
230.219	516.22
230.441	-416.44
230.663	-284.08
230.885	356.57
231.107	630.26
231.329	-165.97
231.551	316.66
231.773	446.58
231.995	411.96
232.217	-502.78
232.439	-227.46
232.661	648.59
232.883	497.08
233.105	-434.36
233.326	-447.39
233.548	563.06
233.77	372.86
233.992	-418.88
234.214	-417.66
234.436	301.59
234.657	435.58
234.879	-287.33
235.101	-623.34
235.323	436.8
235.544	630.67
235.766	102.02
235.988	-136.64
236.21	874.22
236.431	804.17
236.653	-518.26
236.874	549.62
237.096	512.56
237.318	266.16
237.539	-54.78
237.761	-473.46
237.982	485.68
238.204	584.65
238.425	-363.09
238.647	-332.13
238.868	415.63
239.09	857.12
239.311	-664.07
239.533	-558.58
239.754	603.79
239.975	424.99
240.197	-556.54
240.418	-617.23
240.64	684.02
240.861	809.06
241.082	-339.47
241.304	-302.81
241.525	525.18
241.746	389.97
241.967	-600.94
242.189	-43.78
242.41	848.16
242.631	1693.26
242.852	-106.91
243.073	-418.48
243.294	331.32
243.516	590.76
243.737	-380.6
243.958	-236.02
244.179	712.53
244.4	525.59
244.621	-517.85
244.842	-256.38
245.063	970.75
245.284	382.23
245.505	-402.19
245.726	-440.88
245.947	889.7
246.168	247.42
246.389	-630.67
246.61	-463.69
246.831	943.46
247.052	562.65
247.272	-281.23
247.493	-293.44
247.714	477.13
247.935	392.82
248.156	431.92
248.376	-237.24
248.597	514.59
248.818	684.02
249.039	-216.06
249.259	-486.49
249.48	400.96
249.701	471.42
249.921	-561.43
250.142	-346.8
250.363	562.25
250.583	462.06
250.804	-411.15
251.025	-494.64
251.245	958.12
251.466	644.11
251.686	-378.16
251.907	-491.79
252.127	362.68
252.348	402.19
252.568	-284.89
252.789	-162.3
253.009	355.76
253.23	708.87
253.45	-238.87
253.67	-334.99
253.891	471.02
254.111	594.83
254.331	-673.03
254.552	-293.04
254.772	643.7
254.992	435.99
255.213	-541.88
255.433	-370.83
255.653	745.52
255.873	807.02
256.093	-272.67
256.314	-561.43
256.534	241.31
256.754	1045.28
256.974	-631.48
257.194	-366.35
257.414	475.09
257.634	282.45
257.855	-346.8
258.075	-495.05
258.295	263.3
258.515	297.52
258.735	-115.46
258.955	-466.13
259.175	140.31
259.395	555.73
259.615	-183.07
259.835	94.28
260.054	600.12
260.274	634.33
260.494	-503.19
260.714	674.65
260.934	428.25
261.154	767.92
261.374	-499.53
261.593	-168.41
261.813	402.59
262.033	301.59
262.253	-345.98
262.472	-334.58
262.692	664.07
262.912	235.61
263.132	-466.13
263.351	-427.44
263.571	378.16
263.791	943.05
264.01	-154.56
264.23	-198.55
264.449	483.64
264.669	435.58
264.888	-270.64
265.108	-409.92
265.328	768.74
265.547	521.93
265.767	-429.07
265.986	-446.58
266.205	572.43
266.425	861.6
266.644	-594.01
266.864	-571.21
267.083	580.17
267.303	496.27
267.522	-25.05
267.741	-398.11
267.961	481.2
268.18	442.51
268.399	-337.02
268.618	-470.61
268.838	664.88
269.057	674.65
269.276	-526.81
269.495	-361.87
269.715	615.6
269.934	312.99
270.153	26.27
270.372	-597.68
270.591	561.84
270.81	599.72
271.029	-188.77
271.249	-129.72
271.468	635.56
271.687	505.23
271.906	-369.2
272.125	-307.29
272.344	423.36
272.563	1446.04
272.782	-347.2
273.001	-520.3
273.22	242.94
273.439	302
273.657	-179.81
273.876	-289.78
274.095	104.47
274.314	615.6
274.533	-390.38
274.752	457.98
274.971	853.45
275.189	670.17
275.408	152.12
275.627	-318.29
275.846	998.03
276.064	597.27
276.283	-624.56
276.502	-372.86
276.72	774.85
276.939	442.1
277.158	-501.97
277.376	-463.69
277.595	756.11
277.814	511.34
278.032	-74.74
278.251	-280.82
278.469	471.83
278.688	429.47
278.906	-338.24
279.125	-265.75
279.343	161.89
279.562	445.77
279.78	-613.16
279.999	-297.92
280.217	546.36
280.435	627
280.654	-442.51
280.872	-378.16
281.091	549.21
281.309	563.88
281.527	-387.52
281.746	-427.03
281.964	126.05
282.182	891.73
282.4	-449.02
282.619	-197.73
282.837	890.92
283.055	383.04
283.273	-500.34
283.491	-252.31
283.71	760.59
283.928	565.91
284.146	-234.8
284.364	-180.22
284.582	497.49
284.8	621.3
285.018	41.34
285.236	-484.86
285.454	505.63
285.672	603.79
285.89	-549.21
286.108	-610.31
286.326	692.17
286.544	277.56
286.762	-457.17
286.98	-407.48
287.198	941.01
287.416	791.54
287.634	-75.55
287.851	-387.93
288.069	320.73
288.287	484.46
288.505	-599.72
288.723	-455.13
288.94	877.07
289.158	551.66
289.376	-151.3
289.594	-463.28
289.811	369.2
290.029	420.51
290.247	-69.03
290.464	38.08
290.682	535.37
290.9	747.96
291.117	-282.04
291.335	-304.44
291.552	451.47
291.77	612.75
291.987	-586.68
292.205	-406.26
292.422	732.08
292.64	601.75
292.857	-437.21
293.075	-258.42
293.292	808.24
293.51	882.77
293.727	-540.66
293.945	-712.12
294.162	1239.96
294.379	982.96
294.597	-484.46
294.814	-543.92
295.031	1419.16
295.249	1503.46
295.466	-504.82
295.683	-525.18
295.9	1100.67
296.118	813.13
296.335	-517.85
296.552	-465.31
296.769	1126.33
296.986	955.68
297.204	-725.16
297.421	-664.47
297.638	717.83
297.855	980.93
298.072	-861.19
298.289	-314.62
298.506	756.52
298.723	655.51
298.94	-881.55
299.157	-603.79
299.374	1222.44
299.591	1054.24
299.808	-525.59
300.025	-796.02
300.242	1199.23
300.459	712.94
300.676	-778.1
300.893	-557.77
301.109	958.12
301.326	1163.8
301.543	-89.8
301.76	-531.7
301.977	743.89
302.193	1254.21
302.41	-262.08
302.627	-818.83
302.844	783.4
303.06	688.1
303.277	-655.92
303.494	-653.88
303.71	919.02
303.927	1204.93
304.144	-564.28
304.36	-298.33
304.577	990.7
304.793	712.12
305.01	-685.65
305.227	-593.2
305.443	814.76
305.66	1072.16
305.876	-686.47
306.093	-833.09
306.309	1218.37
306.526	495.45
306.742	-1.83
306.958	-596.86
307.175	761
307.391	923.5
307.608	-240.9
307.824	-647.77
308.04	828.61
308.257	736.97
308.473	-185.11
308.689	-747.96
308.905	736.56
309.122	574.06
309.338	-679.95
309.554	-387.52
309.77	982.96
309.986	949.57
310.203	-811.09
310.419	-758.96
310.635	880.33
310.851	548.4
311.067	-153.34
311.283	-801.32
311.499	666.1
311.715	648.18
311.931	-308.51
312.147	-451.06
312.363	432.73
312.579	868.11
312.795	-679.54
313.011	-860.37
313.227	953.23
313.443	1235.48
313.659	-511.74
313.875	-565.91
314.091	793.99
314.307	755.3
314.523	-722.31
314.738	-529.66
314.954	1147.1
315.17	892.55
315.386	-477.13
315.602	-717.42
315.817	697.06
316.033	700.31
316.249	-614.38
316.465	-786.66
316.68	813.94
316.896	858.34
317.112	-535.37
317.327	-613.56
317.543	1148.32
317.758	748.37
317.974	-280.41
318.19	-439.66
318.405	753.67
318.621	988.26
318.836	-509.71
319.052	-113.43
319.267	890.51
319.483	740.63
319.698	-592.79
319.914	-627.41
320.129	714.98
320.344	1406.94
320.56	-294.67
320.775	-80.84
320.99	728.01
321.206	824.94
321.421	95.1
321.636	-598.49
321.852	825.75
322.067	762.22
322.282	-587.9
322.498	-707.64
322.713	879.11
322.928	1082.34
323.143	-615.19
323.358	-515.82
323.574	655.92
323.789	1065.23
324.004	-596.86
324.219	-614.79
324.434	1101.89
324.649	825.75
324.864	-466.94
325.079	-411.15
325.294	442.91
325.509	292.63
325.724	-497.9
325.939	-499.53
326.154	919.84
326.369	2428.8
326.584	-671.8
326.799	-732.9
327.014	1138.95
327.229	656.33
327.444	-602.16
327.659	-404.22
327.873	1084.78
328.088	965.86
328.303	-457.17
328.518	-812.72
328.733	930.02
328.947	924.72
329.162	-385.9
329.377	-572.84
329.591	1097.82
329.806	697.06
330.021	-660.4
330.235	-445.77
330.45	1000.07
330.665	420.51
330.879	-580.57
331.094	-315.84
331.309	899.06
331.523	479.16
331.738	-568.76
331.952	-471.02
332.167	851.01
332.381	818.42
332.596	-679.13
332.81	-811.91
333.025	843.27
333.239	1029.39
333.453	-617.23
333.668	-663.25
333.882	1204.93
334.097	670.58
334.311	-603.79
334.525	-747.96
334.74	889.29
334.954	817.2
335.168	-688.91
335.382	-422.55
335.597	848.56
335.811	638.41
336.025	-592.38
336.239	-821.68
336.453	736.15
336.668	661.62
336.882	-531.29
337.096	-723.12
337.31	898.25
337.524	642.48
337.738	-450.65
337.952	-810.69
338.166	928.8
338.38	841.23
338.594	-624.15
338.808	-631.08
339.022	1133.25
339.236	581.39
339.45	-352.09
339.664	1426.9
339.878	1070.12
340.092	582.2
340.306	-677.1
340.52	-505.23
340.734	882.77
340.948	767.92
341.161	-587.9
341.375	-553.29
341.589	1320.19
341.803	792.36
342.017	-295.07
342.23	-498.3
342.444	779.33
342.658	1244.84
342.871	-564.69
343.085	-617.23
343.299	491.38
343.512	869.33
343.726	-575.28
343.94	-420.92
344.153	533.33
344.367	734.52
344.58	-577.32
344.794	-465.72
345.008	540.25
345.221	572.84
345.435	-229.5
345.648	-188.77
345.862	661.21
346.075	569.58
346.288	-503.19
346.502	-191.62
346.715	761
346.929	322.36
347.142	-723.94
347.355	-449.02
347.569	1212.67
347.782	1204.52
347.995	-641.67
348.209	-755.3
348.422	468.98
348.635	683.62
348.848	-595.64
349.062	-697.87
349.275	777.29
349.488	630.26
349.701	-497.9
349.914	-715.79
350.128	633.93
350.341	825.35
350.554	-547.58
350.767	-683.21
350.98	825.35
351.193	746.34
351.406	-376.12
351.619	-119.94
351.832	921.06
352.045	728.01
352.258	-762.22
352.471	-556.54
352.684	667.73
352.897	862.82
353.11	-605.83
353.323	-669.36
353.536	493.01
353.748	941.42
353.961	-723.12
354.174	-703.57
354.387	769.55
354.6	660.81
354.813	-536.18
355.025	-564.69
355.238	991.11
355.451	886.44
355.664	-543.1
355.876	-694.2
356.089	1364.58
356.302	718.23
356.514	181.44
356.727	-633.93
356.94	703.57
357.152	522.33
357.365	-600.12
357.577	-464.09
357.79	737.78
358.002	249.86
358.215	-478.75
358.427	-416.44
358.64	859.56
358.852	589.13
359.065	-710.9
359.277	-335.39
359.49	925.95
359.702	842.45
359.915	-321.14
360.127	-292.63
360.339	623.75
360.552	473.46
360.764	-394.86
360.976	-657.55
361.189	567.13
361.401	1273.76
361.613	-475.5
361.825	-702.35
362.038	986.22
362.25	1083.15
362.462	-567.13
362.674	-717.83
362.886	1093.34
363.099	896.21
363.311	-637.19
363.523	-337.84
363.735	1290.87
363.947	605.42
364.159	-432.73
364.371	-534.96
364.583	746.74
364.795	699.09
365.007	-536.18
365.219	-757.74
365.431	720.68
365.643	867.7
365.855	-633.52
366.067	-831.86
366.279	767.11
366.491	585.46
366.703	-314.21
366.914	-785.43
367.126	805.8
367.338	1131.62
367.55	-394.45
367.762	-295.89
367.974	884.81
368.185	433.55
368.397	-606.23
368.609	-673.84
368.82	663.66
369.032	1035.1
369.244	-578.54
369.456	-329.28
369.667	1084.78
369.879	673.03
370.09	-365.12
370.302	-504.41
370.514	802.13
370.725	708.05
370.937	-767.51
371.148	-673.03
371.36	848.56
371.571	725.97
371.783	-418.88
371.994	-658.77
372.206	837.57
372.417	1081.53
372.629	-486.09
372.84	-515
373.051	761
373.263	1174.38
373.474	-629.04
373.685	-673.43
373.897	660.81
374.108	717.01
374.319	-604.2
374.531	-465.31
374.742	691.76
374.953	788.69
375.164	-642.07
375.375	-650.22
375.587	627.41
375.798	875.85
376.009	-513.37
376.22	-699.91
376.431	602.16
376.642	811.09
376.853	-603.38
377.065	88.99
377.276	818.83
377.487	639.22
377.698	-716.2
377.909	-533.74
378.12	1171.53
378.331	727.6
378.542	-266.56
378.753	-575.28
378.964	1081.93
379.174	831.46
379.385	-614.79
379.596	-612.34
379.807	509.3
380.018	662.84
380.229	-266.16
380.44	-462.87
380.65	667.32
380.861	617.23
381.072	-721.49
381.283	-409.52
381.493	1121.44
381.704	1064.83
381.915	-366.75
382.126	-699.91
382.336	1240.36
382.547	715.79
382.757	-422.14
382.968	-392.82
383.179	634.74
383.389	863.22
383.6	-493.42
383.81	-603.38
384.021	1110.03
384.231	1459.89
384.442	-68.63
384.652	-568.76
384.863	1002.92
385.073	1027.76
385.284	77.18
385.494	-482.42
385.705	792.36
385.915	573.65
386.125	-508.08
386.336	-1.43
386.546	708.46
386.756	1213.08
386.967	-512.56
387.177	-559.4
387.387	1391.46
387.598	719.46
387.808	-581.8
388.018	-459.21
388.228	565.1
388.439	809.87
388.649	-365.53
388.859	-591.98
389.069	678.32
389.279	652.66
389.489	-451.06
389.699	-420.11
389.909	581.8
390.12	519.48
390.33	-80.44
390.54	-392.82
390.75	2241.45
390.96	1218.37
391.17	-543.51
391.38	-625.37
391.59	547.99
391.799	876.26
392.009	-77.99
392.219	-833.49
392.429	989.48
392.639	1139.77
392.849	-516.63
393.059	-409.11
393.269	797.65
393.478	884.4
393.688	-68.63
393.898	-244.98
394.108	827.79
394.317	768.74
394.527	-493.42
394.737	-358.61
394.947	760.18
395.156	662.03
395.366	-622.12
395.576	-75.96
395.785	963.01
395.995	1048.13
396.204	-526
396.414	-394.86
396.624	872.59
396.833	621.71
397.043	-565.1
397.252	-347.61
397.462	927.98
397.671	823.72
397.881	-580.57
398.09	-438.84
398.299	975.23
398.509	897.84
398.718	-181.85
398.928	-569.98
399.137	1448.48
399.346	764.66
399.556	-531.29
399.765	-840.01
399.974	704.39
400.184	644.11
400.393	-306.48
400.602	-317.07
400.811	1077.45
401.021	640.44
401.23	-216.06
401.439	159.86
401.648	647.77
401.857	858.74
402.066	-450.25
402.276	-463.28
402.485	816.39
402.694	668.14
402.903	-524.37
403.112	-334.58
403.321	1006.59
403.53	825.35
403.739	-333.76
403.948	-369.6
404.157	833.09
404.366	792.36
404.575	-616.41
404.784	-328.06
404.993	1173.98
405.202	1041.2
405.411	-535.77
405.619	-690.13
405.828	735.75
406.037	770.37
406.246	-430.7
406.455	-611.93
406.663	1209
406.872	847.34
407.081	-91.84
407.29	-324.8
407.498	627.41
407.707	666.51
407.916	-484.86
408.124	-618.04
408.333	1024.91
408.542	571.61
408.75	-633.11
408.959	-356.16
409.168	725.97
409.376	1126.33
409.585	-206.29
409.793	-543.92
410.002	663.25
410.21	1075.82
410.419	-332.95
410.627	-511.74
410.836	1276.2
411.044	1084.78
411.253	-475.09
411.461	-509.71
411.669	1482.29
411.878	1416.71
412.086	-512.15
412.294	-537.4
412.503	486.9
412.711	1001.29
412.919	-583.83
413.128	-540.66
413.336	906.4
413.544	826.57
413.752	-168.82
413.961	287.74
414.169	782.18
414.377	990.7
414.585	-440.88
414.793	-406.26
415.001	717.83
415.209	885.22
415.418	-490.97
415.626	-255.97
415.834	974.41
416.042	742.67
416.25	-650.63
416.458	-541.88
416.666	774.03
416.874	2316.39
417.082	-253.53
417.29	-587.9
417.498	836.75
417.706	671.8
417.913	-180.22
418.121	-159.86
418.329	991.11
418.537	806.21
418.745	-238.05
418.953	-202.21
419.161	897.44
419.368	677.1
419.576	-289.78
419.784	-403
419.992	1114.51
420.199	1066.86
420.407	-440.88
420.615	312.59
420.822	1100.26
421.03	868.11
421.238	-479.98
421.445	-547.58
421.653	791.95
421.861	1343.4
422.068	29.93
422.276	-271.86
422.483	738.6
422.691	985.41
422.898	-114.65
423.106	-312.59
423.313	824.53
423.521	1149.54
423.728	-446.17
423.936	-345.57
424.143	1189.05
424.35	988.67
424.558	80.03
424.765	-416.44
424.973	777.7
425.18	1160.54
425.387	-71.48
425.594	-166.78
425.802	1580.44
426.009	949.97
426.216	-178.59
426.424	-309.73
426.631	1147.91
426.838	973.6
427.045	-251.09
427.252	-319.1
427.459	1029.8
427.667	999.26
427.874	-86.55
428.081	-293.04
428.288	889.7
428.495	1197.19
428.702	-124.83
428.909	-316.25
429.116	884.4
429.323	1100.67
429.53	-138.27
429.737	-163.11
429.944	969.93
430.151	1142.62
430.358	118.72
430.565	-64.96
430.772	1132.84
430.979	894.99
431.185	-313.4
431.392	-242.94
431.599	1711.58
431.806	1324.67
432.013	-214.84
432.219	-263.71
432.426	969.12
432.633	1146.28
432.84	-334.17
433.046	-156.19
433.253	1233.03
433.46	1177.64
433.666	-170.04
433.873	142.34
434.08	1219.18
434.286	1119.4
434.493	-6.72
434.7	-139.49
434.906	1178.86
435.113	956.9
435.319	340.69
435.526	-464.09
435.732	1149.54
435.939	1041.2
436.145	169.22
436.352	-341.09
436.558	967.49
436.765	1122.66
436.971	-305.66
437.177	-38.08
437.384	767.92
437.59	893.36
437.796	83.7
438.003	-173.3
438.209	1279.05
438.415	1115.33
438.622	-20.16
438.828	-193.66
439.034	1852.5
439.24	1042.02
439.447	-114.65
439.653	-169.22
439.859	1055.46
440.065	1118.59
440.271	-62.11
440.477	70.26
440.683	1128.77
440.89	952.42
441.096	150.49
441.302	25.86
441.508	1109.22
441.714	1057.09
441.92	-190.81
442.126	-286.52
442.332	1461.11
442.538	1276.2
442.744	-97.95
442.95	65.78
443.156	1017.58
443.361	1481.06
443.567	-132.57
443.773	-38.89
443.979	1188.64
444.185	1290.46
444.391	-139.49
444.596	-48.67
444.802	1467.62
445.008	1394.31
445.214	-279.6
445.42	409.52
445.625	1219.18
445.831	987.44
446.037	38.08
446.242	480.79
446.448	1496.54
446.654	1392.68
446.859	-146.42
447.065	49.08
447.27	1234.66
447.476	1323.86
447.682	59.26
447.887	101.62
448.093	1241.99
448.298	1020.84
448.504	440.88
448.709	-48.67
448.915	1199.64
449.12	1094.97
449.325	-196.51
449.531	-59.26
449.736	950.38
449.942	951.6
450.147	222.58
450.352	-121.57
450.558	1260.32
450.763	1251.77
450.968	442.51
451.174	181.85
451.379	1232.62
451.584	1506.32
451.789	208.73
451.995	151.71
452.2	1171.94
452.405	1072.16
452.61	-154.15
452.815	226.24
453.02	1006.59
453.226	965.04
