Data from FLMT087451__13__14-03-43-937.txt Node

Date: Tue Jun 04 14:03:43 JST 2024
User: power
Spectrometer: FLMT08745
Trigger mode: 0
Integration Time (sec): 2.000000E-1
Scans to average: 11
Electric dark correction enabled: true
Nonlinearity correction enabled: false
Boxcar width: 0
XAxis mode: Wavelengths
Number of Pixels in Spectrum: 3648
>>>>>Begin Spectral Data<<<<<
194.923	-327.04
195.148	-327.04
195.372	-327.04
195.597	-334.08
195.821	-317.6
196.046	69.87
196.271	-57.68
196.495	-100.08
196.72	-19.36
196.944	-34.36
197.169	-27.88
197.393	83.57
197.618	51.36
197.842	78.39
198.067	-1.22
198.291	-109.7
198.516	67.09
198.74	-95.45
198.964	78.2
199.189	13.96
199.413	122.63
199.637	72.83
199.862	11.18
200.086	42.47
200.31	199.27
200.535	20.63
200.759	213.16
200.983	-65.46
201.207	-14.18
201.432	30.25
201.656	159.66
201.88	21.92
202.104	-28.8
202.328	54.5
202.552	118.37
202.777	58.58
203.001	71.54
203.225	-27.69
203.449	-135.62
203.673	62.09
203.897	33.58
204.121	28.77
204.345	100.79
204.569	-51.94
204.793	26.92
205.017	22.85
205.241	94.68
205.465	-5.29
205.689	-22.51
205.912	27.48
206.136	-61.75
206.36	16.37
206.584	88.57
206.808	-55.65
207.032	103.19
207.255	101.9
207.479	87.64
207.703	11.93
207.927	6
208.15	-78.23
208.374	-13.07
208.598	-44.54
208.822	11.74
209.045	6.74
209.269	45.06
209.492	247.41
209.716	133.37
209.94	61.72
210.163	87.46
210.387	155.95
210.61	105.78
210.834	-8.99
211.057	3.59
211.281	-58.05
211.504	-32.13
211.728	-3.81
211.951	160.95
212.175	187.79
212.398	20.81
212.622	-7.51
212.845	191.13
213.068	3.41
213.292	50.62
213.515	-22.32
213.738	-12.88
213.962	9.89
214.185	-39.17
214.408	48.4
214.631	129.67
214.855	71.17
215.078	4.89
215.301	77.46
215.524	10.44
215.747	80.24
215.971	9.89
216.194	23.59
216.417	26.92
216.64	91.9
216.863	741.14
217.086	104.12
217.309	-4.18
217.532	81.9
217.755	-32.88
217.978	94.12
218.201	148.55
218.424	151.33
218.647	-8.07
218.87	35.62
219.093	115.78
219.316	159.84
219.539	56.17
219.762	-25.84
219.985	23.96
220.207	-141.73
220.43	51.91
220.653	63.58
220.876	6.19
221.099	165.39
221.321	20.07
221.544	3.96
221.767	110.41
221.99	13.96
222.212	50.99
222.435	91.71
222.658	151.88
222.88	-69.72
223.103	202.98
223.326	-81.56
223.548	64.87
223.771	32.29
223.993	4.52
224.216	2.85
224.438	58.76
224.661	36.55
224.883	86.35
225.106	229.82
225.328	-19.18
225.551	98.56
225.773	5.08
225.996	23.59
226.218	40.25
226.44	74.13
226.663	80.61
226.885	3.22
227.108	65.61
227.33	62.09
227.552	22.48
227.774	17.48
227.997	41.73
228.219	85.79
228.441	150.95
228.663	169.65
228.886	17.66
229.108	2.85
229.33	19.89
229.552	-43.06
229.774	65.06
229.996	38.58
230.219	96.9
230.441	22.66
230.663	68.57
230.885	-4.55
231.107	41.36
231.329	66.91
231.551	105.23
231.773	17.85
231.995	61.17
232.217	31.55
232.439	2.3
232.661	32.29
232.883	30.07
233.105	-5.48
233.326	11
233.548	150.58
233.77	11.18
233.992	178.54
234.214	7.3
234.436	-43.61
234.657	61.54
234.879	256.85
235.101	-44.72
235.323	41.73
235.544	46.73
235.766	69.31
235.988	115.04
236.21	85.79
236.431	119.11
236.653	97.64
236.874	181.32
237.096	48.58
237.318	-75.82
237.539	63.76
237.761	18.96
237.982	22.66
238.204	176.13
238.425	-35.65
238.647	50.8
238.868	-3.44
239.09	60.8
239.311	-59.16
239.533	31.55
239.754	93.75
239.975	38.95
240.197	2.11
240.418	9.52
240.64	94.12
240.861	52.28
241.082	72.09
241.304	51.73
241.525	20.81
241.746	20.44
241.967	-88.97
242.189	46.54
242.41	143.55
242.631	254.81
242.852	-34.73
243.073	137.63
243.294	10.63
243.516	97.82
243.737	48.58
243.958	-31.58
244.179	61.17
244.4	203.53
244.621	-6.59
244.842	54.87
245.063	138.37
245.284	56.91
245.505	57.47
245.726	86.53
245.947	147.81
246.168	10.63
246.389	9.7
246.61	102.08
246.831	145.22
247.052	32.84
247.272	69.87
247.493	11.74
247.714	150.21
247.935	-33.25
248.156	95.05
248.376	111.89
248.597	142.44
248.818	17.85
249.039	18.96
249.259	40.62
249.48	-48.24
249.701	82.27
249.921	-33.62
250.142	-28.62
250.363	78.57
250.583	38.58
250.804	72.46
251.025	152.81
251.245	123.19
251.466	110.97
251.686	19.89
251.907	-19.36
252.127	101.53
252.348	68.76
252.568	17.48
252.789	133.55
253.009	79.68
253.23	182.06
253.45	68.39
253.67	114.3
253.891	-8.07
254.111	141.51
254.331	82.83
254.552	34.88
254.772	83.57
254.992	28.96
255.213	-26.95
255.433	105.23
255.653	44.51
255.873	69.13
256.093	116.52
256.314	-1.4
256.534	-31.76
256.754	198.16
256.974	18.4
257.194	0.45
257.414	7.3
257.634	79.13
257.855	13.96
258.075	-26.4
258.295	-8.81
258.515	-4.55
258.735	90.6
258.955	51.73
259.175	-2.88
259.395	53.39
259.615	108.01
259.835	94.68
260.054	33.77
260.274	88.75
260.494	103.75
260.714	219.82
260.934	101.34
261.154	94.49
261.374	15.81
261.593	53.21
261.813	-39.35
262.033	14.52
262.253	28.4
262.472	59.32
262.692	52.1
262.912	98.93
263.132	97.64
263.351	135.96
263.571	208.16
263.791	68.76
264.01	157.62
264.23	74.68
264.449	-11.03
264.669	237.59
264.888	170.76
265.108	44.14
265.328	201.31
265.547	48.02
265.767	87.46
265.986	-56.57
266.205	87.46
266.425	42.66
266.644	91.34
266.864	-57.13
267.083	144.48
267.303	36.18
267.522	85.05
267.741	74.68
267.961	161.32
268.18	-29.36
268.399	122.63
268.618	76.35
268.838	138
269.057	12.11
269.276	87.64
269.495	79.31
269.715	202.79
269.934	-6.22
270.153	118.19
270.372	-48.98
270.591	101.9
270.81	130.96
271.029	130.22
271.249	103.01
271.468	34.7
271.687	162.06
271.906	91.16
272.125	150.03
272.344	103.38
272.563	42.84
272.782	54.5
273.001	7.48
273.22	62.83
273.439	83.57
273.657	110.78
273.876	134.66
274.095	-63.79
274.314	149.47
274.533	179.65
274.752	12.11
274.971	117.45
275.189	198.9
275.408	143.73
275.627	32.1
275.846	148.55
276.064	37.84
276.283	-67.31
276.502	108.19
276.72	-17.32
276.939	11.37
277.158	40.62
277.376	17.29
277.595	101.53
277.814	59.32
278.032	141.14
278.251	-21.58
278.469	1.56
278.688	87.09
278.906	230.74
279.125	57.28
279.343	47.65
279.562	32.29
279.78	-70.83
279.999	73.02
280.217	41.73
280.435	56.91
280.654	-56.57
280.872	125.59
281.091	114.3
281.309	103.01
281.527	152.25
281.746	27.29
281.964	-31.95
282.182	55.8
282.4	68.39
282.619	204.64
282.837	184.28
283.055	34.33
283.273	8.59
283.491	57.47
283.71	83.57
283.928	28.77
284.146	37.29
284.364	29.33
284.582	62.65
284.8	92.46
285.018	71.35
285.236	-38.43
285.454	154.84
285.672	116.89
285.89	23.4
286.108	-23.99
286.326	59.69
286.544	89.31
286.762	28.77
286.98	-51.2
287.198	186.31
287.416	342.93
287.634	159.29
287.851	81.16
288.069	65.06
288.287	36.55
288.505	-4
288.723	85.42
288.94	119.85
289.158	59.5
289.376	185.76
289.594	60.43
289.811	2.11
290.029	19.7
290.247	219.45
290.464	107.08
290.682	-48.8
290.9	91.53
291.117	96.16
291.335	63.76
291.552	-37.5
291.77	75.05
291.987	24.88
292.205	60.24
292.422	71.35
292.64	150.03
292.857	-45.65
293.075	53.95
293.292	55.99
293.51	84.12
293.727	32.66
293.945	70.61
294.162	78.94
294.379	68.02
294.597	53.02
294.814	89.86
295.031	62.09
295.249	139.48
295.466	82.27
295.683	58.76
295.9	96.16
296.118	25.25
296.335	-60.46
296.552	91.53
296.769	174.47
296.986	97.82
297.204	50.43
297.421	53.39
297.638	92.27
297.855	100.05
298.072	12.67
298.289	90.97
298.506	1
298.723	126.89
298.94	57.1
299.157	85.05
299.374	60.61
299.591	144.29
299.808	-28.8
300.025	-15.66
300.242	-4.18
300.459	111.15
300.676	-2.51
300.893	-23.62
301.109	107.45
301.326	158.73
301.543	112.63
301.76	24.7
301.977	-6.22
302.193	25.99
302.41	128.92
302.627	-18.07
302.844	18.59
303.06	19.89
303.277	48.4
303.494	76.9
303.71	55.06
303.927	121.52
304.144	50.06
304.36	76.9
304.577	39.88
304.793	108.56
305.01	8.22
305.227	42.66
305.443	72.09
305.66	254.26
305.876	-43.98
306.093	21.74
306.309	72.28
306.526	-54.16
306.742	106.52
306.958	81.53
307.175	86.9
307.391	-2.14
307.608	134.48
307.824	136.89
308.04	96.9
308.257	52.84
308.473	225.56
308.689	15.07
308.905	140.59
309.122	8.96
309.338	-8.62
309.554	120.78
309.77	75.05
309.986	77.27
310.203	-87.49
310.419	39.14
310.635	87.09
310.851	-11.03
311.067	126.52
311.283	102.45
311.499	-47.69
311.715	53.76
311.931	117.08
312.147	81.72
312.363	-53.98
312.579	97.08
312.795	128.74
313.011	-39.35
313.227	10.26
313.443	172.98
313.659	88.57
313.875	56.73
314.091	132.63
314.307	151.33
314.523	31.36
314.738	46.36
314.954	188.72
315.17	-0.66
315.386	54.69
315.602	10.63
315.817	24.14
316.033	36.55
316.249	39.32
316.465	82.46
316.68	25.07
316.896	88.38
317.112	-3.26
317.327	-16.95
317.543	283.32
317.758	52.1
317.974	107.64
318.19	129.11
318.405	21.74
318.621	60.24
318.836	23.77
319.052	15.44
319.267	114.67
319.483	36.73
319.698	92.27
319.914	9.89
320.129	39.88
320.344	158.17
320.56	117.45
320.775	220.38
320.99	104.67
321.206	82.46
321.421	126.33
321.636	44.69
321.852	101.71
322.067	48.77
322.282	-42.69
322.498	8.41
322.713	104.67
322.928	145.77
323.143	-2.14
323.358	37.1
323.574	181.32
323.789	19.33
324.004	27.48
324.219	53.39
324.434	133.55
324.649	43.77
324.864	113.56
325.079	25.99
325.294	34.33
325.509	-18.25
325.724	132.07
325.939	3.96
326.154	77.83
326.369	263.7
326.584	43.4
326.799	-13.81
327.014	185.57
327.229	33.03
327.444	69.68
327.659	6.37
327.873	68.02
328.088	129.11
328.303	53.39
328.518	-9.92
328.733	-9.55
328.947	88.01
329.162	1.37
329.377	75.61
329.591	107.27
329.806	-9.73
330.021	-15.29
330.235	170.39
330.45	64.32
330.665	-43.61
330.879	20.26
331.094	95.79
331.309	60.24
331.523	95.42
331.738	69.68
331.952	89.68
332.167	149.84
332.381	-41.76
332.596	81.35
332.81	1.37
333.025	6
333.239	109.49
333.453	10.26
333.668	70.24
333.882	119.85
334.097	59.32
334.311	85.61
334.525	107.82
334.74	70.24
334.954	-5.66
335.168	176.69
335.382	86.9
335.597	50.25
335.811	-32.88
336.025	49.51
336.239	-34.73
336.453	75.42
336.668	59.13
336.882	-7.33
337.096	82.27
337.31	92.08
337.524	107.45
337.738	52.65
337.952	64.5
338.166	64.13
338.38	84.31
338.594	150.77
338.808	9.89
339.022	200.94
339.236	68.76
339.45	58.76
339.664	245.74
339.878	87.83
340.092	-15.84
340.306	-23.25
340.52	72.28
340.734	125.59
340.948	45.43
341.161	105.78
341.375	86.35
341.589	82.27
341.803	65.06
342.017	75.98
342.23	62.28
342.444	192.98
342.658	68.76
342.871	94.86
343.085	9.89
343.299	-30.65
343.512	39.51
343.726	-19.55
343.94	89.86
344.153	132.63
344.367	134.11
344.58	13.22
344.794	23.96
345.008	-42.32
345.221	-11.77
345.435	80.05
345.648	85.05
345.862	41.36
346.075	7.11
346.288	16.92
346.502	158.17
346.715	81.16
346.929	-85.82
347.142	110.6
347.355	71.35
347.569	84.49
347.782	118.37
347.995	59.87
348.209	51.73
348.422	-66.38
348.635	64.69
348.848	104.67
349.062	15.63
349.275	193.72
349.488	114.3
349.701	110.97
349.914	-78.23
350.128	83.57
350.341	51.91
350.554	-84.16
350.767	27.85
350.98	119.67
351.193	20.26
351.406	25.25
351.619	82.46
351.832	76.9
352.045	11.74
352.258	-4.74
352.471	54.5
352.684	57.1
352.897	69.13
353.11	8.22
353.323	133
353.536	-67.31
353.748	135.4
353.961	-22.69
354.174	9.7
354.387	37.66
354.6	-53.05
354.813	-0.29
355.025	119.11
355.238	123
355.451	50.62
355.664	38.95
355.876	112.63
356.089	152.99
356.302	47.65
356.514	54.13
356.727	48.02
356.94	1.74
357.152	-32.32
357.365	50.25
357.577	-9.36
357.79	-6.22
358.002	-98.41
358.215	5.08
358.427	24.33
358.64	179.09
358.852	-21.77
359.065	-3.26
359.277	1.56
359.49	152.62
359.702	170.76
359.915	10.63
360.127	-8.25
360.339	-21.58
360.552	-5.48
360.764	69.5
360.976	82.83
361.189	-25.47
361.401	175.02
361.613	154.84
361.825	-55.65
362.038	77.09
362.25	155.58
362.462	58.76
362.674	28.77
362.886	161.51
363.099	104.3
363.311	131.33
363.523	115.04
363.735	140.59
363.947	59.87
364.159	139.66
364.371	135.22
364.583	8.04
364.795	41.36
365.007	78.02
365.219	4.71
365.431	68.94
365.643	7.48
365.855	-7.7
366.067	-84.71
366.279	-3.07
366.491	33.96
366.703	58.39
366.914	33.4
367.126	35.25
367.338	139.85
367.55	105.6
367.762	44.51
367.974	29.7
368.185	-27.51
368.397	100.79
368.609	84.86
368.82	107.64
369.032	135.4
369.244	13.78
369.456	148.73
369.667	75.42
369.879	151.88
370.09	-20.84
370.302	68.02
370.514	165.02
370.725	106.71
370.937	-22.32
371.148	31.36
371.36	75.05
371.571	35.44
371.783	43.21
371.994	57.47
372.206	54.5
372.417	244.81
372.629	26.92
372.84	11
373.051	-1.77
373.263	137.07
373.474	86.35
373.685	3.96
373.897	58.95
374.108	73.02
374.319	6
374.531	57.84
374.742	115.23
374.953	39.69
375.164	-28.99
375.375	29.14
375.587	11.55
375.798	86.72
376.009	136.14
376.22	116.71
376.431	68.2
376.642	8.41
376.853	144.66
377.065	90.97
377.276	65.06
377.487	12.85
377.698	-50.65
377.909	82.46
378.12	104.67
378.331	10.26
378.542	20.81
378.753	-6.59
378.964	57.65
379.174	95.97
379.385	51.54
379.596	-25.47
379.807	131.33
380.018	-19.73
380.229	167.06
380.44	210.57
380.65	-22.14
380.861	85.24
381.072	60.8
381.283	95.6
381.493	147.99
381.704	150.95
381.915	26.74
382.126	-5.85
382.336	142.81
382.547	150.03
382.757	58.58
382.968	-24.91
383.179	24.7
383.389	135.4
383.6	63.02
383.81	36.36
384.021	233.71
384.231	245.74
384.442	32.47
384.652	23.59
384.863	171.13
385.073	134.48
385.284	143.18
385.494	71.91
385.705	32.47
385.915	26.74
386.125	35.81
386.336	34.7
386.546	-23.25
386.756	140.96
386.967	16
387.177	182.61
387.387	174.47
387.598	52.28
387.808	53.58
388.018	136.89
388.228	52.84
388.439	80.61
388.649	-20.47
388.859	-40.84
389.069	140.96
389.279	-11.96
389.489	49.14
389.699	40.62
389.909	53.39
390.12	-58.79
390.33	138.74
390.54	72.09
390.75	167.62
390.96	45.99
391.17	24.88
391.38	-6.22
391.59	-53.05
391.799	24.14
392.009	143.92
392.219	66.72
392.429	34.7
392.639	57.65
392.849	34.7
393.059	145.96
393.269	158.17
393.478	82.27
393.688	162.25
393.898	147.81
394.108	-25.47
394.317	17.85
394.527	10.63
394.737	92.46
394.947	65.24
395.156	-2.7
395.366	117.63
395.576	162.8
395.785	85.79
395.995	132.07
396.204	104.67
396.414	-46.2
396.624	38.77
396.833	-12.33
397.043	61.72
397.252	64.5
397.462	227.6
397.671	68.76
397.881	-24.91
398.09	57.65
398.299	-0.29
398.509	76.35
398.718	84.12
398.928	93.38
399.137	178.72
399.346	77.27
399.556	86.72
399.765	-42.13
399.974	14.52
400.184	76.9
400.393	110.04
400.602	111.89
400.811	103.75
401.021	80.24
401.23	193.35
401.439	112.26
401.648	139.11
401.857	46.54
402.066	64.13
402.276	94.12
402.485	204.27
402.694	90.05
402.903	142.44
403.112	5.08
403.321	212.79
403.53	176.32
403.739	59.5
403.948	68.02
404.157	169.28
404.366	73.2
404.575	84.31
404.784	193.53
404.993	162.25
405.202	310.72
405.411	248.7
405.619	59.13
405.828	156.69
406.037	207.42
406.246	144.48
406.455	113.19
406.663	210.01
406.872	134.66
407.081	240.74
407.29	220.38
407.498	205.75
407.707	185.94
407.916	196.13
408.124	287.58
408.333	402.54
408.542	154.47
408.75	262.96
408.959	228.89
409.168	258.51
409.376	263.51
409.585	309.79
409.793	447.53
410.002	342.93
410.21	376.07
410.419	384.03
410.627	312.38
410.836	356.07
411.044	387.55
411.253	398.47
411.461	305.35
411.669	506.4
411.878	529.91
412.086	352.56
412.294	493.62
412.503	369.77
412.711	497.7
412.919	549.16
413.128	495.29
413.336	441.23
413.544	676.16
413.752	666.16
413.961	677.82
414.169	598.96
414.377	719.66
414.585	844.44
414.793	655.42
415.001	641.17
415.209	759.28
415.418	682.82
415.626	829.63
415.834	757.43
416.042	788.34
416.25	744.65
416.458	733.18
416.666	847.03
416.874	1014.38
417.082	1029.93
417.29	944.22
417.498	997.91
417.706	1067.51
417.913	1100.65
418.121	1150.45
418.329	1335.02
418.537	1155.63
418.745	1183.96
418.953	1319.1
419.161	1473.68
419.368	1396.85
419.576	1331.13
419.784	1468.5
419.992	1542.92
420.199	1689.54
420.407	1569.21
420.615	1722.86
420.822	1703.42
421.03	1755.63
421.238	1827.83
421.445	1791.54
421.653	1756.37
421.861	1989.26
422.068	1932.98
422.276	2029.98
422.483	2028.5
422.691	2195.67
422.898	2445.78
423.106	2151.8
423.313	2291.75
423.521	2438.56
423.728	2524.46
423.936	2488.17
424.143	2605.36
424.35	2786.59
424.558	2662.38
424.765	2765.86
424.973	2762.53
425.18	2785.11
425.387	3030.41
425.594	2998.93
425.802	3272.55
426.009	3122.04
426.216	3125.75
426.424	3348.27
426.631	3491.18
426.838	3424.91
427.045	3464.9
427.252	3578.01
427.459	3799.23
427.667	3838.48
427.874	3802.38
428.081	3848.66
428.288	3969.37
428.495	4104.51
428.702	4310
428.909	4291.3
429.116	4258.16
429.323	4503.64
429.53	4587.13
429.737	4656.55
429.944	4815.76
430.151	4912.03
430.358	5080.12
430.565	5103.08
430.772	5127.14
430.979	5303.01
431.185	5506.84
431.392	5529.79
431.599	5805.26
431.806	5822.48
432.013	5976.69
432.219	6082.21
432.426	6216.98
432.633	6357.12
432.84	6434.87
433.046	6533.55
433.253	6708.31
433.46	6985.07
433.666	7097.44
433.873	7269.24
434.08	7456.21
434.286	7550.63
434.493	7842.39
434.7	7841.09
434.906	7961.24
435.113	8097.12
435.319	8479.96
435.526	8438.12
435.732	8706
435.939	8711.55
436.145	8946.66
436.352	9208.8
436.558	9315.99
436.765	9587.39
436.971	9611.64
437.177	9858.6
437.384	10059.64
437.59	10077.23
437.796	10234.77
438.003	10369.36
438.209	10700.73
438.415	10734.06
438.622	11147.07
438.828	11258.7
439.034	11351.64
439.24	11314.8
439.447	11660.06
439.653	11549.72
439.859	11981.99
440.065	11843.7
440.271	11994.95
440.477	12058.26
440.683	12436.66
440.89	12439.44
441.096	12875.41
441.302	12544.4
441.508	12676.4
441.714	12625.86
441.92	12770.63
442.126	12761
442.332	13166.24
442.538	12980.56
442.744	12929.65
442.95	13077.2
443.156	12910.21
443.361	13167.35
443.567	13155.14
443.773	12982.6
443.979	13127.37
444.185	12836.72
444.391	12787.11
444.596	12730.46
444.802	12815.06
445.008	12854.49
445.214	12629.56
445.42	12554.4
445.625	12574.95
445.831	12464.25
446.037	12547.92
446.242	12350.21
446.448	12204.7
446.654	12104.55
446.859	11786.87
447.065	11673.02
447.27	11709.12
447.476	11394.4
447.682	11163.92
447.887	11291.29
448.093	11233.71
448.298	10787.19
448.504	10823.29
448.709	10462.66
448.915	10566.33
449.12	10004.29
449.325	10092.22
449.531	9958.01
449.736	9690.5
449.942	9453.73
450.147	9355.24
450.352	9377.27
450.558	8967.03
450.763	8698.41
450.968	8910.2
451.174	8628.99
451.379	8282.43
451.584	8183.02
451.789	8160.43
451.995	8007.15
452.2	7697.25
452.405	7644.12
452.61	7433.26
452.815	7590.06
453.02	7115.21
453.226	7062.45
453.431	7073.56
453.636	6831.23
453.841	6755.88
454.046	6646.47
454.251	6667.76
454.456	6437.84
454.661	6346.2
454.866	6225.13
455.071	6139.41
455.276	6052.22
455.481	5837.66
455.686	5827.11
455.891	5813.96
456.095	5627.54
456.3	5585.89
456.505	5390.39
456.71	5536.83
456.915	5371.51
457.12	5224.71
457.324	5026.06
457.529	5116.41
457.734	4997.93
457.939	4894.81
458.144	4785.59
458.348	4757.45
458.553	4800.58
458.758	4550.66
458.962	4526.41
459.167	4544.18
459.372	4447.73
459.576	4670.07
459.781	4378.68
459.985	4312.59
460.19	4300
460.394	4135.98
460.599	4197.07
460.803	4047.12
461.008	4089.88
461.212	3896.24
461.417	3919.2
461.621	3716.11
461.826	3729.44
462.03	3591.52
462.235	3623.55
462.439	3657.61
462.643	3756.1
462.848	3620.96
463.052	3428.06
463.256	3514.33
463.461	3292.36
463.665	3281.44
463.869	3375.3
464.074	3211.27
464.278	3160.18
464.482	3210.53
464.686	2971.54
464.89	3124.08
465.095	3242
465.299	2935.81
465.503	2953.76
465.707	2913.04
