Data from FLMT087451__19__14-08-19-375.txt Node

Date: Tue Jun 04 14:08:19 JST 2024
User: power
Spectrometer: FLMT08745
Trigger mode: 0
Integration Time (sec): 2.000000E-1
Scans to average: 11
Electric dark correction enabled: true
Nonlinearity correction enabled: false
Boxcar width: 0
XAxis mode: Wavelengths
Number of Pixels in Spectrum: 3648
>>>>>Begin Spectral Data<<<<<
194.923	-335.2
195.148	-335.2
195.372	-335.2
195.597	-338.16
195.821	-330.39
196.046	54.12
196.271	-33.26
196.495	-113.98
196.72	-21.78
196.944	-1.79
197.169	12.47
197.393	71.71
197.618	23.76
197.842	72.08
198.067	-10.31
198.291	-110.27
198.516	57.27
198.74	-92.69
198.964	66.89
199.189	22.83
199.413	120.21
199.637	50.6
199.862	-38.44
200.086	26.72
200.31	183.52
200.535	5.25
200.759	183.34
200.983	-53.44
201.207	-49
201.432	3.58
201.656	104.84
201.88	-0.68
202.104	-63.07
202.328	54.3
202.552	101.14
202.777	25.98
203.001	68.37
203.225	-40.67
203.449	-149.89
203.673	42.09
203.897	3.58
204.121	6.73
204.345	84.48
204.569	-74.36
204.793	3.95
205.017	36.16
205.241	51.16
205.465	-29.19
205.689	-12.16
205.912	-14.01
206.136	-90.09
206.36	5.43
206.584	54.3
206.808	-94.91
207.032	90.77
207.255	80.96
207.479	72.26
207.703	7.65
207.927	-1.05
208.15	-88.43
208.374	-38.44
208.598	-88.8
208.822	24.68
209.045	-2.16
209.269	9.13
209.492	203.15
209.716	107.99
209.94	33.94
210.163	83.74
210.387	100.59
210.61	62.45
210.834	-66.58
211.057	-10.86
211.281	-69.73
211.504	-48.63
211.728	-39.19
211.951	118.36
212.175	177.78
212.398	-8.64
212.622	-13.08
212.845	195.37
213.068	3.39
213.292	26.16
213.515	-82.87
213.738	-34.19
213.962	-26.6
214.185	-92.69
214.408	50.42
214.631	105.77
214.855	34.87
215.078	-44.18
215.301	65.6
215.524	-17.34
215.747	70.41
215.971	-40.3
216.194	-6.97
216.417	-0.86
216.64	61.71
216.863	702.8
217.086	63.19
217.309	-57.51
217.532	84.85
217.755	-61.96
217.978	43.2
218.201	113.73
218.424	111.69
218.647	-20.12
218.87	-18.27
219.093	90.59
219.316	103.92
219.539	15.06
219.762	-35.67
219.985	-15.3
220.207	-159.7
220.43	4.13
220.653	54.67
220.876	-33.26
221.099	125.21
221.321	3.95
221.544	-19.38
221.767	86.7
221.99	-42.15
222.212	38.94
222.435	61.52
222.658	106.69
222.88	-79.54
223.103	148.9
223.326	-99.91
223.548	38.2
223.771	-14.56
223.993	-4.38
224.216	-36.96
224.438	34.12
224.661	17.83
224.883	40.05
225.106	202.22
225.328	-54.92
225.551	76.33
225.773	-52.33
225.996	-22.89
226.218	30.42
226.44	45.42
226.663	36.72
226.885	-1.6
227.108	37.27
227.33	50.79
227.552	11.91
227.774	21.54
227.997	28.2
228.219	40.05
228.441	82.63
228.663	160.2
228.886	-14.01
229.108	-18.82
229.33	-9.75
229.552	-56.22
229.774	21.17
229.996	-1.42
230.219	108.36
230.441	-20.3
230.663	23.57
230.885	-37.15
231.107	-2.16
231.329	28.57
231.551	98.55
231.773	-19.75
231.995	59.67
232.217	-11.42
232.439	-10.12
232.661	-10.49
232.883	-29.56
233.105	-31.78
233.326	-5.12
233.548	103.18
233.77	-4.01
233.992	137.06
234.214	-30.67
234.436	-67.32
234.657	44.86
234.879	217.96
235.101	-108.98
235.323	8.58
235.544	-0.49
235.766	73
235.988	131.5
236.21	97.62
236.431	117.62
236.653	85.4
236.874	139.28
237.096	67.45
237.318	-122.86
237.539	50.23
237.761	-1.42
237.982	-14.56
238.204	195.74
238.425	-36.78
238.647	35.24
238.868	-34.74
239.09	62.08
239.311	-76.21
239.533	2.28
239.754	63.19
239.975	-5.68
240.197	-35.85
240.418	-39.56
240.64	62.08
240.861	4.5
241.082	81.89
241.304	-4.94
241.525	-22.71
241.746	-23.82
241.967	-125.27
242.189	6.17
242.41	125.02
242.631	253.68
242.852	-44.18
243.073	107.06
243.294	-24.93
243.516	58.38
243.737	13.95
243.958	-47.7
244.179	31.53
244.4	175.19
244.621	-42.15
244.842	4.32
245.063	142.98
245.284	59.49
245.505	28.94
245.726	37.09
245.947	121.13
246.168	-11.42
246.389	-19.01
246.61	70.59
246.831	116.69
247.052	-20.67
247.272	25.24
247.493	-20.12
247.714	98.18
247.935	-60.47
248.156	93.18
248.376	87.81
248.597	134.65
248.818	-13.45
249.039	-7.53
249.259	7.65
249.48	-84.73
249.701	72.82
249.921	-28.45
250.142	-16.41
250.363	46.16
250.583	9.69
250.804	73.19
251.025	126.69
251.245	115.02
251.466	105.77
251.686	-7.34
251.907	-70.1
252.127	100.96
252.348	60.6
252.568	20.06
252.789	82.81
253.009	71.15
253.23	162.23
253.45	47.82
253.67	67.82
253.891	-28.63
254.111	138.54
254.331	39.49
254.552	18.94
254.772	65.78
254.992	0.99
255.213	-73.62
255.433	113.36
255.653	-31.04
255.873	38.38
256.093	99.1
256.314	-28.08
256.534	-51.77
256.754	172.97
256.974	-14.01
257.194	-1.6
257.414	-18.64
257.634	57.82
257.855	1.36
258.075	-70.66
258.295	0.25
258.515	-16.23
258.735	80.96
258.955	-2.16
259.175	-18.27
259.395	5.8
259.615	50.6
259.835	88.55
260.054	14.13
260.274	72.45
260.494	85.78
260.714	216.47
260.934	69.85
261.154	57.45
261.374	-31.59
261.593	34.68
261.813	-93.24
262.033	20.24
262.253	0.25
262.472	55.97
262.692	40.05
262.912	76.89
263.132	45.05
263.351	74.67
263.571	182.78
263.791	70.59
264.01	158.71
264.23	44.86
264.449	-29
264.669	184.26
264.888	147.61
265.108	0.43
265.328	172.41
265.547	29.13
265.767	45.6
265.986	-69.73
266.205	71.15
266.425	46.34
266.644	80.04
266.864	-84.73
267.083	142.61
267.303	4.5
267.522	34.68
267.741	27.46
267.961	95.03
268.18	-55.29
268.399	99.29
268.618	44.86
268.838	114.47
269.057	12.47
269.276	12.28
269.495	56.34
269.715	149.09
269.934	-35.67
270.153	112.99
270.372	-59.92
270.591	58.19
270.81	102.25
271.029	106.14
271.249	52.27
271.468	-16.41
271.687	137.06
271.906	64.86
272.125	96.33
272.344	92.81
272.563	-12.16
272.782	9.5
273.001	-39.93
273.22	13.76
273.439	49.12
273.657	88
273.876	95.03
274.095	-83.25
274.314	120.39
274.533	131.5
274.752	22.09
274.971	60.78
275.189	189.08
275.408	101.33
275.627	-6.6
275.846	126.13
276.064	19.69
276.283	-81.95
276.502	82.07
276.72	-72.14
276.939	3.95
277.158	-0.12
277.376	-15.12
277.595	64.67
277.814	-11.6
278.032	116.69
278.251	-35.85
278.469	-17.9
278.688	39.86
278.906	211.29
279.125	48.01
279.343	-5.68
279.562	1.36
279.78	-84.36
279.999	41.34
280.217	26.72
280.435	16.72
280.654	-48.07
280.872	65.78
281.091	48.38
281.309	47.45
281.527	127.43
281.746	-2.53
281.964	-42.89
282.182	45.97
282.4	38.57
282.619	161.86
282.837	161.12
283.055	6.54
283.273	-17.34
283.491	39.86
283.71	62.45
283.928	10.8
284.146	-3.64
284.364	32.64
284.582	28.76
284.8	31.9
285.018	51.71
285.236	-112.87
285.454	134.65
285.672	71.71
285.89	3.95
286.108	-63.25
286.326	49.86
286.544	55.04
286.762	12.28
286.98	-71.03
287.198	178.15
287.416	293.67
287.634	118.54
287.851	40.23
288.069	26.72
288.287	13.21
288.505	-26.97
288.723	84.11
288.94	97.99
289.158	20.24
289.376	154.64
289.594	33.01
289.811	-36.04
290.029	-29.37
290.247	165.01
290.464	85.22
290.682	-68.99
290.9	62.82
291.117	76.7
291.335	3.39
291.552	-84.73
291.77	45.42
291.987	-10.12
292.205	28.94
292.422	41.16
292.64	100.59
292.857	-68.43
293.075	42.46
293.292	-1.97
293.51	45.23
293.727	-15.49
293.945	50.6
294.162	25.79
294.379	41.72
294.597	51.16
294.814	39.31
295.031	34.31
295.249	97.62
295.466	20.43
295.683	13.39
295.9	60.78
296.118	-1.6
296.335	-71.21
296.552	80.59
296.769	120.58
296.986	73.74
297.204	24.31
297.421	0.8
297.638	27.83
297.855	56.15
298.072	-1.79
298.289	63
298.506	-20.49
298.723	107.43
298.94	63.56
299.157	15.8
299.374	56.15
299.591	99.84
299.808	-57.7
300.025	-66.4
300.242	-14.38
300.459	69.85
300.676	-22.34
300.893	-43.81
301.109	76.15
301.326	105.77
301.543	94.48
301.76	3.21
301.977	-14.75
302.193	-19.75
302.41	130.39
302.627	-63.99
302.844	-2.16
303.06	-14.38
303.277	44.12
303.494	27.09
303.71	19.13
303.927	85.22
304.144	-22.34
304.36	52.27
304.577	-6.79
304.793	84.85
305.01	-41.96
305.227	8.76
305.443	49.31
305.66	228.69
305.876	-82.13
306.093	-17.34
306.309	21.35
306.526	-88.43
306.742	45.42
306.958	70.96
307.175	59.49
307.391	-42.89
307.608	97.99
307.824	86.7
308.04	92.25
308.257	9.69
308.473	201.29
308.689	-7.71
308.905	106.14
309.122	-10.12
309.338	-52.7
309.554	60.6
309.77	68.37
309.986	38.2
310.203	-138.04
310.419	19.31
310.635	65.04
310.851	-52.14
311.067	134.46
311.283	44.12
311.499	-51.96
311.715	-5.49
311.931	136.87
312.147	66.89
312.363	-81.76
312.579	84.66
312.795	84.85
313.011	-53.81
313.227	-54.18
313.443	148.16
313.659	52.45
313.875	15.24
314.091	116.88
314.307	110.03
314.523	7.84
314.738	-3.09
314.954	129.46
315.17	-16.78
315.386	68.37
315.602	-7.34
315.817	-1.42
316.033	-11.23
316.249	17.65
316.465	39.68
316.68	-23.08
316.896	68.19
317.112	-46.59
317.327	-48.81
317.543	217.96
317.758	-0.86
317.974	64.49
318.19	90.77
318.405	1.54
318.621	16.17
318.836	12.84
319.052	-27.15
319.267	78.56
319.483	-21.41
319.698	84.29
319.914	-13.45
320.129	12.65
320.344	101.7
320.56	86.52
320.775	182.97
320.99	72.08
321.206	65.97
321.421	96.33
321.636	-6.05
321.852	49.68
322.067	21.35
322.282	-58.62
322.498	-25.67
322.713	81.15
322.928	109.47
323.143	-27.52
323.358	14.32
323.574	143.16
323.789	-20.86
324.004	3.21
324.219	14.69
324.434	107.43
324.649	23.57
324.864	77.81
325.079	-2.53
325.294	-16.6
325.509	-41.78
325.724	97.81
325.939	6.17
326.154	56.71
326.369	282.93
326.584	33.75
326.799	-57.88
327.014	148.9
327.229	-17.16
327.444	59.86
327.659	-15.86
327.873	50.42
328.088	86.15
328.303	-2.16
328.518	-25.86
328.733	-38.07
328.947	42.27
329.162	-41.59
329.377	43.01
329.591	87.26
329.806	-26.6
330.021	-54.18
330.235	142.24
330.45	43.75
330.665	-96.76
330.879	-14.75
331.094	104.1
331.309	16.91
331.523	45.05
331.738	28.94
331.952	57.64
332.167	128.17
332.381	-45.85
332.596	15.06
332.81	-19.93
333.025	-39.93
333.239	80.41
333.453	-9.38
333.668	63
333.882	100.96
334.097	17.46
334.311	58.01
334.525	48.01
334.74	45.42
334.954	-29
335.168	127.43
335.382	82.26
335.597	14.87
335.811	-47.7
336.025	50.42
336.239	-103.79
336.453	45.23
336.668	61.52
336.882	-47.89
337.096	69.3
337.31	57.45
337.524	64.49
337.738	44.49
337.952	57.64
338.166	22.09
338.38	43.01
338.594	109.1
338.808	-31.22
339.022	166.86
339.236	32.64
339.45	20.98
339.664	220.73
339.878	80.59
340.092	-44.92
340.306	-78.25
340.52	44.49
340.734	93.37
340.948	6.91
341.161	57.45
341.375	64.86
341.589	34.12
341.803	31.16
342.017	34.87
342.23	23.94
342.444	142.98
342.658	19.5
342.871	78
343.085	-5.86
343.299	-55.11
343.512	3.39
343.726	-41.96
343.94	85.78
344.153	112.25
344.367	102.07
344.58	13.95
344.794	-13.27
345.008	-63.81
345.221	-60.84
345.435	53.56
345.648	21.54
345.862	-6.23
346.075	10.06
346.288	5.8
346.502	129.65
346.715	44.86
346.929	-96.39
347.142	98.18
347.355	64.3
347.569	101.88
347.782	66.71
347.995	66.52
348.209	26.16
348.422	-76.4
348.635	51.34
348.848	49.68
349.062	-26.23
349.275	173.71
349.488	81.89
349.701	132.98
349.914	-99.17
350.128	65.04
350.341	21.72
350.554	-121.2
350.767	28.02
350.98	65.78
351.193	8.21
351.406	-24
351.619	60.41
351.832	80.41
352.045	-0.86
352.258	-19.75
352.471	14.13
352.684	26.35
352.897	46.9
353.11	-33.45
353.323	76.7
353.536	-94.54
353.748	114.28
353.961	-26.41
354.174	-17.71
354.387	10.43
354.6	-70.66
354.813	-17.53
355.025	102.07
355.238	87.26
355.451	24.5
355.664	29.31
355.876	102.07
356.089	138.72
356.302	22.83
356.514	45.6
356.727	16.54
356.94	-3.83
357.152	-39.93
357.365	37.64
357.577	-33.26
357.79	-35.3
358.002	-146.56
358.215	-56.96
358.427	6.36
358.64	120.95
358.852	-60.1
359.065	-30.48
359.277	-24.56
359.49	144.27
359.702	139.09
359.915	-1.97
360.127	-47.15
360.339	-30.48
360.552	-38.81
360.764	31.72
360.976	63.56
361.189	-43.07
361.401	138.91
361.613	155.2
361.825	-78.06
362.038	32.64
362.25	105.77
362.462	16.54
362.674	-5.68
362.886	145.94
363.099	79.11
363.311	123.54
363.523	90.59
363.735	117.25
363.947	35.61
364.159	111.88
364.371	106.69
364.583	8.58
364.795	33.38
365.007	44.12
365.219	-37.52
365.431	14.87
365.643	-58.07
365.855	-51.59
366.067	-93.8
366.279	-20.86
366.491	-22.34
366.703	23.39
366.914	17.28
367.126	12.47
367.338	141.68
367.55	93.18
367.762	37.46
367.974	-4.01
368.185	-43.07
368.397	54.49
368.609	88.37
368.82	55.41
369.032	84.29
369.244	-21.04
369.456	124.1
369.667	74.85
369.879	129.09
370.09	-45.85
370.302	37.46
370.514	120.02
370.725	87.26
370.937	-56.77
371.148	6.36
371.36	65.04
371.571	20.43
371.783	28.2
371.994	64.67
372.206	37.83
372.417	224.62
372.629	26.9
372.84	1.17
373.051	-4.38
373.263	109.47
373.474	93.74
373.685	-19.01
373.897	26.9
374.108	79.48
374.319	-24.93
374.531	19.13
374.742	89.29
374.953	-0.68
375.164	-60.1
375.375	31.72
375.587	-40.11
375.798	54.86
376.009	86.7
376.22	126.87
376.431	-22.89
376.642	-10.68
376.853	107.06
377.065	59.86
377.276	24.87
377.487	-7.34
377.698	-84.91
377.909	42.27
378.12	79.3
378.331	-18.64
378.542	-10.68
378.753	16.17
378.964	40.42
379.174	114.84
379.385	45.05
379.596	-73.8
379.807	90.03
380.018	-56.4
380.229	187.22
380.44	212.77
380.65	-23.45
380.861	67.82
381.072	56.34
381.283	75.59
381.493	151.31
381.704	130.95
381.915	15.24
382.126	-55.85
382.336	128.17
382.547	113.73
382.757	18.57
382.968	-65.47
383.179	14.5
383.389	101.7
383.6	57.27
383.81	7.84
384.021	206.29
384.231	175.38
384.442	21.17
384.652	5.99
384.863	122.62
385.073	112.43
385.284	97.81
385.494	28.76
385.705	18.02
385.915	25.05
386.125	3.58
386.336	-5.31
386.546	-50.29
386.756	139.83
386.967	-23.82
387.177	128.54
387.387	155.2
387.598	48.19
387.808	27.83
388.018	77.63
388.228	16.91
388.439	76.33
388.649	0.62
388.859	-61.77
389.069	91.88
389.279	-58.81
389.489	28.39
389.699	29.87
389.909	28.57
390.12	-80.47
390.33	127.43
390.54	27.65
390.75	137.8
390.96	19.69
391.17	7.28
391.38	-32.15
391.59	-75.84
391.799	8.21
392.009	105.03
392.219	61.34
392.429	8.95
392.639	25.05
392.849	8.02
393.059	130.02
393.269	135.94
393.478	59.86
393.688	158.53
393.898	108.73
394.108	-34.19
394.317	39.86
394.527	-25.49
394.737	74.48
394.947	47.64
395.156	-12.71
395.366	72.82
395.576	132.24
395.785	80.41
395.995	109.66
396.204	62.26
396.414	-55.66
396.624	36.16
396.833	-29.37
397.043	-13.64
397.252	37.09
397.462	204.07
397.671	46.71
397.881	-51.22
398.09	16.72
398.299	-27.34
398.509	36.53
398.718	35.24
398.928	58.38
399.137	172.04
399.346	48.01
399.556	60.78
399.765	-63.81
399.974	-34.19
400.184	51.71
400.393	94.66
400.602	74.67
400.811	104.1
401.021	16.17
401.23	164.27
401.439	86.89
401.648	127.61
401.857	26.16
402.066	35.42
402.276	54.12
402.485	170.19
402.694	26.72
402.903	97.81
403.112	2.28
403.321	189.26
403.53	157.23
403.739	15.24
403.948	60.6
404.157	165.01
404.366	60.41
404.575	63
404.784	165.38
404.993	119.65
405.202	307.74
405.411	226.84
405.619	33.75
405.828	123.36
406.037	185.74
406.246	73.74
406.455	65.6
406.663	208.51
406.872	91.7
407.081	158.53
407.29	199.81
407.498	191.48
407.707	143.16
407.916	102.99
408.124	231.28
408.333	346.99
408.542	90.96
408.75	181.49
408.959	158.16
409.168	221.66
409.376	180.37
409.585	275.9
409.793	366.24
410.002	272.94
410.21	331.81
410.419	309.22
410.627	223.69
410.836	292.56
411.044	294.78
411.253	325.7
411.461	250.54
411.669	476.58
411.878	470.47
412.086	280.16
412.294	430.48
412.503	309.04
412.711	453.81
412.919	432.33
413.128	381.98
413.336	340.51
413.544	561.36
413.752	543.22
413.961	604.68
414.169	520.27
414.377	657.07
414.585	735.38
414.793	560.62
415.001	566.55
415.209	640.6
415.418	628.38
415.626	741.68
415.834	657.44
416.042	687.81
416.25	631.71
416.458	621.34
416.666	729.46
416.874	908.85
417.082	926.06
417.29	831.65
417.498	895.33
417.706	946.43
417.913	1002.33
418.121	1041.03
418.329	1219.49
418.537	1046.21
418.745	1104.89
418.953	1210.6
419.161	1346.3
419.368	1297.05
419.576	1202.09
419.784	1354.07
419.992	1432.57
420.199	1570.67
420.407	1436.08
420.615	1609.36
420.822	1654.72
421.03	1603.07
421.238	1706.37
421.445	1662.31
421.653	1648.42
421.861	1876.87
422.068	1817.07
422.276	1963.51
422.483	1905.38
422.691	2056.63
422.898	2305.44
423.106	2047.74
423.313	2216.21
423.521	2350.79
423.728	2402.81
423.936	2380.04
424.143	2488.53
424.35	2708.46
424.558	2581.09
424.765	2646.81
424.973	2648.29
425.18	2709.75
425.387	2892.47
425.594	2887.66
425.802	3179.79
426.009	2998.92
426.216	3062.97
426.424	3221.81
426.631	3438.22
426.838	3290.12
427.045	3397.87
427.252	3498.57
427.459	3725.72
427.667	3758.31
427.874	3686.29
428.081	3821.62
428.288	3934.73
428.495	4030.81
428.702	4284.25
428.909	4234.08
429.116	4145.03
429.323	4425.13
429.53	4516.95
429.737	4640.25
429.944	4764.65
430.151	4860.55
430.358	5052.71
430.565	4966.44
430.772	5082.7
430.979	5268.56
431.185	5445.92
431.392	5446.66
431.599	5784.7
431.806	5771.18
432.013	5972.78
432.219	6090.52
432.426	6164.02
432.633	6356.92
432.84	6418.94
433.046	6531.12
433.253	6719.21
433.46	6928.78
433.666	6984.68
433.873	7253.12
434.08	7318.1
434.286	7618.55
434.493	7825.71
434.7	7771.28
434.906	7977.14
435.113	8135.61
435.319	8465.88
435.526	8438.85
435.732	8783.55
435.939	8726.16
436.145	8944.61
436.352	9262.47
436.558	9337.45
436.765	9641.8
436.971	9676.23
437.177	9862.65
437.384	10070.92
437.59	10217.35
437.796	10275.11
438.003	10472.64
438.209	10796.61
438.415	10868.07
438.622	11192.6
438.828	11462.33
439.034	11421.41
439.24	11467.51
439.447	11850.54
439.653	11706.32
439.859	11985.12
440.065	11908.48
440.271	12146.18
440.477	12124.34
440.683	12482.74
440.89	12462.19
441.096	13079.96
441.302	12706.37
441.508	12862.44
441.714	12768.39
441.92	12957.41
442.126	12906.87
442.332	13309.89
442.538	13263.23
442.744	13163.45
442.95	13228.99
443.156	13092.73
443.361	13285.45
443.567	13273.42
443.773	13187.52
443.979	13450.4
444.185	13022.76
444.391	13099.21
444.596	13093.84
444.802	12995.54
445.008	13058.48
445.214	12906.68
445.42	12834.3
445.625	12995.17
445.831	12806.34
446.037	12922.6
446.242	12630.66
446.448	12492
446.654	12349.45
446.859	12075.65
447.065	12015.85
447.27	11970.68
447.476	11632.83
447.682	11487.69
447.887	11589.51
448.093	11532.31
448.298	11045.05
448.504	11147.8
448.709	10776.25
448.915	10799.76
449.12	10304.55
449.325	10338.8
449.531	10337.5
449.736	10018.9
449.942	9734.55
450.147	9615.14
450.352	9632.17
450.558	9299.5
450.763	9095.12
450.968	9165.65
451.174	8890.93
451.379	8612.13
451.584	8471.06
451.789	8365.17
451.995	8348.51
452.2	7921.42
452.405	7879.95
452.61	7694.09
452.815	7813.31
453.02	7426.95
453.226	7299.58
453.431	7372.34
453.636	7133.15
453.841	6913.59
454.046	6912.85
454.251	6840.66
454.456	6643.5
454.661	6533.9
454.866	6431.16
455.071	6395.43
455.276	6269.36
455.481	6103.67
455.686	6003.14
455.891	5983.52
456.095	5850.42
456.3	5800.8
456.505	5567.17
456.71	5698.06
456.915	5521.08
457.12	5369.27
457.324	5224.32
457.529	5291.89
457.734	5118.98
457.939	5003.65
458.144	4931.64
458.348	4899.05
458.553	4880.36
458.758	4656.72
458.962	4648.39
459.167	4617.66
459.372	4644.5
459.576	4773.72
459.781	4480.3
459.985	4372.92
460.19	4390.7
460.394	4251.3
460.599	4273.14
460.803	4099.31
461.008	4115.97
461.212	3939.73
461.417	3981.94
461.621	3793.48
461.826	3830.51
462.03	3680.74
462.235	3719.61
462.439	3721.84
462.643	3811.81
462.848	3680
463.052	3450.81
463.256	3472.84
463.461	3300.86
463.665	3274.39
463.869	3313.45
464.074	3192.56
464.278	3101.29
464.482	3198.48
464.686	2925.24
464.89	3067.79
465.095	3191.08
