Data from FLMT087451__15__14-05-43-323.txt Node

Date: Tue Jun 04 14:05:43 JST 2024
User: power
Spectrometer: FLMT08745
Trigger mode: 0
Integration Time (sec): 2.000000E-1
Scans to average: 11
Electric dark correction enabled: true
Nonlinearity correction enabled: false
Boxcar width: 0
XAxis mode: Wavelengths
Number of Pixels in Spectrum: 3648
>>>>>Begin Spectral Data<<<<<
194.923	-327.24
195.148	-327.24
195.372	-327.24
195.597	-350.75
195.821	-339.09
196.046	67.08
196.271	-70.84
196.495	-101.39
196.72	-12.16
196.944	-9.01
197.169	-19.75
197.393	86.52
197.618	46.34
197.842	69.67
198.067	-13.08
198.291	-116.57
198.516	73.19
198.74	-119.34
198.964	87.44
199.189	13.76
199.413	128.54
199.637	60.04
199.862	1.73
200.086	44.31
200.31	191.67
200.535	11.35
200.759	182.04
200.983	-63.81
201.207	-51.96
201.432	0.62
201.656	124.28
201.88	0.25
202.104	-50.66
202.328	72.26
202.552	92.62
202.777	13.76
203.001	43.57
203.225	-57.14
203.449	-159.15
203.673	17.28
203.897	12.84
204.121	-17.34
204.345	97.81
204.569	-70.47
204.793	10.06
205.017	7.47
205.241	71.15
205.465	-40.11
205.689	-30.48
205.912	11.35
206.136	-88.98
206.36	11.72
206.584	29.87
206.808	-63.44
207.032	87.07
207.255	73.74
207.479	110.4
207.703	21.35
207.927	16.35
208.15	-64.73
208.374	-15.3
208.598	-78.99
208.822	9.87
209.045	-12.34
209.269	40.42
209.492	229.06
209.716	118.36
209.94	44.31
210.163	90.03
210.387	134.46
210.61	104.47
210.834	-38.44
211.057	-7.16
211.281	-76.4
211.504	-29.74
211.728	-13.08
211.951	149.64
212.175	165.19
212.398	1.17
212.622	-16.6
212.845	199.81
213.068	35.05
213.292	40.97
213.515	-56.22
213.738	-36.22
213.962	-25.3
214.185	-73.62
214.408	42.46
214.631	113.17
214.855	28.2
215.078	-32.15
215.301	54.49
215.524	-16.97
215.747	55.41
215.971	-38.07
216.194	-9.56
216.417	-23.26
216.64	45.42
216.863	686.51
217.086	81.89
217.309	-31.04
217.532	103.55
217.755	-64.36
217.978	48.19
218.201	115.21
218.424	125.58
218.647	-56.96
218.87	5.8
219.093	104.29
219.316	131.13
219.539	10.24
219.762	-19.01
219.985	15.98
220.207	-145.82
220.43	9.13
220.653	67.45
220.876	-15.67
221.099	142.79
221.321	-4.75
221.544	-29.56
221.767	62.08
221.99	-35.3
222.212	42.64
222.435	72.26
222.658	92.44
222.88	-53.44
223.103	140.39
223.326	-90.84
223.548	65.04
223.771	-6.23
223.993	-34.74
224.216	-34.56
224.438	10.61
224.661	3.21
224.883	60.97
225.106	194.44
225.328	-38.26
225.551	92.44
225.773	-14.01
225.996	6.91
226.218	21.72
226.44	63.37
226.663	39.49
226.885	-2.16
227.108	40.97
227.33	63
227.552	26.16
227.774	23.02
227.997	36.53
228.219	37.27
228.441	108.36
228.663	149.83
228.886	-13.27
229.108	-32.71
229.33	2.28
229.552	-57.7
229.774	74.67
229.996	-0.68
230.219	99.1
230.441	-10.86
230.663	51.34
230.885	-29.74
231.107	25.42
231.329	25.05
231.551	88
231.773	-0.31
231.995	38.94
232.217	20.06
232.439	-6.23
232.661	-12.53
232.883	-20.3
233.105	-20.86
233.326	-14.01
233.548	101.33
233.77	-9.19
233.992	145.02
234.214	-16.6
234.436	-54.55
234.657	21.72
234.879	213.51
235.101	-56.59
235.323	27.28
235.544	-12.53
235.766	58.38
235.988	115.02
236.21	72.08
236.431	134.28
236.653	82.26
236.874	147.05
237.096	61.15
237.318	-117.12
237.539	64.67
237.761	5.8
237.982	10.43
238.204	170.56
238.425	-32.52
238.647	43.75
238.868	-34.37
239.09	77.44
239.311	-95.09
239.533	8.02
239.754	91.14
239.975	1.17
240.197	-12.71
240.418	-21.41
240.64	84.85
240.861	45.79
241.082	54.49
241.304	14.69
241.525	-17.34
241.746	-18.45
241.967	-109.16
242.189	-0.31
242.41	115.58
242.631	245.54
242.852	-47.7
243.073	120.58
243.294	11.17
243.516	45.05
243.737	32.27
243.958	-49.74
244.179	16.17
244.4	174.08
244.621	-10.49
244.842	-10.12
245.063	142.79
245.284	56.53
245.505	62.82
245.726	39.12
245.947	100.96
246.168	-12.53
246.389	5.99
246.61	99.84
246.831	128.91
247.052	15.43
247.272	56.15
247.493	5.06
247.714	112.43
247.935	-15.49
248.156	95.4
248.376	73.37
248.597	121.13
248.818	23.02
249.039	-37.15
249.259	18.02
249.48	-53.81
249.701	86.15
249.921	-32.52
250.142	-36.04
250.363	54.67
250.583	27.28
250.804	69.11
251.025	130.39
251.245	114.47
251.466	96.14
251.686	3.21
251.907	-38.81
252.127	115.77
252.348	45.6
252.568	9.87
252.789	101.51
253.009	96.51
253.23	143.35
253.45	46.9
253.67	67.45
253.891	-30.3
254.111	112.99
254.331	54.49
254.552	22.46
254.772	36.35
254.992	16.54
255.213	-50.85
255.433	105.21
255.653	17.65
255.873	54.86
256.093	122.62
256.314	-32.34
256.534	-64.73
256.754	179.45
256.974	-8.27
257.194	-21.78
257.414	-0.68
257.634	51.16
257.855	-7.71
258.075	-65.1
258.295	7.84
258.515	-14.01
258.735	63.19
258.955	29.68
259.175	-19.38
259.395	49.68
259.615	73.19
259.835	68.93
260.054	19.5
260.274	79.48
260.494	92.81
260.714	218.14
260.934	60.6
261.154	82.07
261.374	-8.27
261.593	21.91
261.813	-70.47
262.033	-12.71
262.253	-14.38
262.472	62.63
262.692	34.68
262.912	58.38
263.132	62.45
263.351	112.43
263.571	178.15
263.791	58.01
264.01	146.31
264.23	62.63
264.449	4.5
264.669	188.15
264.888	142.24
265.108	18.76
265.328	158.16
265.547	34.12
265.767	45.79
265.986	-67.14
266.205	81.15
266.425	12.28
266.644	84.66
266.864	-71.95
267.083	134.65
267.303	-16.23
267.522	49.12
267.741	52.27
267.961	133.35
268.18	-47.89
268.399	84.11
268.618	65.41
268.838	100.77
269.057	7.65
269.276	40.42
269.495	32.09
269.715	155.38
269.934	-51.03
270.153	117.25
270.372	-57.88
270.591	85.4
270.81	112.99
271.029	91.7
271.249	46.34
271.468	5.06
271.687	132.61
271.906	68.19
272.125	109.29
272.344	82.81
272.563	15.24
272.782	18.39
273.001	-55.66
273.22	19.87
273.439	67.45
273.657	71.15
273.876	79.67
274.095	-74.73
274.314	107.43
274.533	148.72
274.752	-2.34
274.971	84.29
275.189	177.6
275.408	134.09
275.627	26.72
275.846	113.54
276.064	43.01
276.283	-86.95
276.502	77.81
276.72	-35.67
276.939	17.83
277.158	3.02
277.376	-14.19
277.595	90.77
277.814	2.47
278.032	103.36
278.251	-36.96
278.469	-35.85
278.688	40.42
278.906	203.89
279.125	38.01
279.343	-1.42
279.562	34.12
279.78	-99.54
279.999	41.72
280.217	4.5
280.435	27.46
280.654	-78.62
280.872	63.56
281.091	58.75
281.309	70.04
281.527	121.87
281.746	22.09
281.964	-39.37
282.182	32.83
282.4	28.02
282.619	200.74
282.837	158.53
283.055	-20.86
283.273	-0.31
283.491	21.72
283.71	88.92
283.928	0.06
284.146	-5.31
284.364	15.24
284.582	26.72
284.8	26.72
285.018	51.71
285.236	-71.95
285.454	120.21
285.672	87.44
285.89	-11.05
286.108	-48.07
286.326	48.93
286.544	50.97
286.762	-13.64
286.98	-78.06
287.198	190.56
287.416	272.94
287.634	113.73
287.851	33.2
288.069	57.64
288.287	-10.68
288.505	-35.48
288.723	49.12
288.94	67.63
289.158	26.53
289.376	161.68
289.594	11.91
289.811	-56.59
290.029	-8.45
290.247	183.34
290.464	104.47
290.682	-88.43
290.9	62.26
291.117	58.75
291.335	33.38
291.552	-57.14
291.77	37.64
291.987	-9.01
292.205	21.35
292.422	45.79
292.64	115.77
292.857	-54
293.075	49.12
293.292	4.87
293.51	37.27
293.727	44.49
293.945	28.2
294.162	46.9
294.379	42.27
294.597	53.75
294.814	25.24
295.031	62.45
295.249	86.52
295.466	33.94
295.683	50.97
295.9	55.6
296.118	-7.16
296.335	-56.96
296.552	71.34
296.769	149.27
296.986	86.15
297.204	53.19
297.421	23.94
297.638	35.24
297.855	66.89
298.072	-18.08
298.289	73.74
298.506	-32.15
298.723	109.84
298.94	40.6
299.157	35.79
299.374	53.19
299.591	127.43
299.808	-43.26
300.025	-67.69
300.242	-4.38
300.459	88.74
300.676	-35.48
300.893	-14.56
301.109	90.4
301.326	159.64
301.543	71.52
301.76	4.13
301.977	-29
302.193	-3.27
302.41	109.66
302.627	-62.7
302.844	-10.68
303.06	8.02
303.277	45.6
303.494	66.34
303.71	13.02
303.927	100.77
304.144	-15.67
304.36	52.27
304.577	16.35
304.793	92.99
305.01	-24.93
305.227	5.62
305.443	37.27
305.66	232.95
305.876	-109.53
306.093	-0.86
306.309	27.83
306.526	-61.96
306.742	67.82
306.958	75.04
307.175	65.41
307.391	6.91
307.608	106.51
307.824	95.59
308.04	104.1
308.257	9.13
308.473	208.51
308.689	-19.38
308.905	129.28
309.122	-19.38
309.338	-53.81
309.554	89.66
309.77	54.86
309.986	59.86
310.203	-120.27
310.419	14.13
310.635	66.89
310.851	-55.29
311.067	125.39
311.283	50.05
311.499	-63.25
311.715	0.8
311.931	103.18
312.147	101.88
312.363	-77.51
312.579	91.88
312.795	74.85
313.011	-48.63
313.227	-26.04
313.443	145.2
313.659	60.04
313.875	-18.08
314.091	80.59
314.307	93.18
314.523	18.94
314.738	10.24
314.954	135.76
315.17	-21.6
315.386	59.12
315.602	2.65
315.817	3.02
316.033	15.61
316.249	-1.05
316.465	47.45
316.68	0.8
316.896	59.49
317.112	-54
317.327	-32.52
317.543	252.39
317.758	10.98
317.974	76.33
318.19	102.44
318.405	24.5
318.621	30.79
318.836	-5.12
319.052	-12.9
319.267	95.77
319.483	14.69
319.698	82.07
319.914	-10.68
320.129	9.13
320.344	124.1
320.56	84.48
320.775	169.27
320.99	80.22
321.206	82.07
321.421	77.63
321.636	35.98
321.852	96.51
322.067	35.05
322.282	-29.37
322.498	-38.07
322.713	70.96
322.928	110.58
323.143	-10.68
323.358	45.79
323.574	148.53
323.789	0.62
324.004	-10.68
324.219	23.76
324.434	123.73
324.649	13.02
324.864	78.74
325.079	39.31
325.294	-17.16
325.509	-38.07
325.724	137.43
325.939	-12.9
326.154	67.08
326.369	252.94
326.584	33.2
326.799	-24.56
327.014	160.01
327.229	-10.31
327.444	38.01
327.659	-9.38
327.873	49.49
328.088	94.29
328.303	13.39
328.518	-34.74
328.733	-28.82
328.947	66.89
329.162	-30.67
329.377	58.75
329.591	103.36
329.806	-6.79
330.021	-61.77
330.235	128.91
330.45	58.01
330.665	-89.17
330.879	4.69
331.094	55.04
331.309	68.93
331.523	61.89
331.738	60.6
331.952	66.34
332.167	138.35
332.381	-51.77
332.596	25.24
332.81	-19.01
333.025	-41.04
333.239	78.18
333.453	-16.97
333.668	60.04
333.882	81.7
334.097	23.39
334.311	43.01
334.525	70.78
334.74	72.26
334.954	-60.47
335.168	137.98
335.382	48.38
335.597	31.53
335.811	-51.22
336.025	52.45
336.239	-75.84
336.453	58.38
336.668	37.64
336.882	-51.4
337.096	81.52
337.31	75.04
337.524	85.03
337.738	65.78
337.952	14.32
338.166	51.16
338.38	45.42
338.594	140.02
338.808	-21.97
339.022	189.82
339.236	50.42
339.45	34.68
339.664	235.17
339.878	71.89
340.092	-19.93
340.306	-51.77
340.52	43.2
340.734	107.25
340.948	19.13
341.161	79.48
341.375	59.86
341.589	60.23
341.803	35.61
342.017	55.04
342.23	29.31
342.444	181.86
342.658	50.6
342.871	78.56
343.085	-12.71
343.299	-60.29
343.512	15.98
343.726	-28.26
343.94	65.04
344.153	121.32
344.367	85.22
344.58	-9.01
344.794	0.43
345.008	-41.59
345.221	-37.7
345.435	28.94
345.648	31.9
345.862	2.84
346.075	15.43
346.288	16.91
346.502	111.14
346.715	85.03
346.929	-90.28
347.142	85.03
347.355	66.15
347.569	90.59
347.782	97.81
347.995	53.75
348.209	23.57
348.422	-68.25
348.635	49.31
348.848	84.11
349.062	-15.49
349.275	186.85
349.488	93.74
349.701	134.09
349.914	-101.76
350.128	79.48
350.341	20.06
350.554	-87.69
350.767	4.13
350.98	90.77
351.193	7.1
351.406	-45.66
351.619	28.94
351.832	90.03
352.045	-22.34
352.258	-12.9
352.471	40.05
352.684	21.17
352.897	86.15
353.11	-28.45
353.323	91.33
353.536	-110.27
353.748	130.39
353.961	-37.7
354.174	3.58
354.387	23.2
354.6	-57.7
354.813	-31.04
355.025	106.51
355.238	93.92
355.451	33.75
355.664	7.65
355.876	96.88
356.089	150.75
356.302	36.9
356.514	41.72
356.727	2.1
356.94	-11.6
357.152	-39.74
357.365	20.43
357.577	-17.71
357.79	-17.9
358.002	-120.64
358.215	-51.03
358.427	8.02
358.64	134.46
358.852	-53.25
359.065	-58.81
359.277	-31.59
359.49	137.43
359.702	124.28
359.915	19.69
360.127	-40.48
360.339	-13.45
360.552	-21.6
360.764	39.12
360.976	48.75
361.189	-35.67
361.401	127.43
361.613	146.87
361.825	-67.14
362.038	77.81
362.25	108.92
362.462	39.12
362.674	17.65
362.886	152.79
363.099	85.4
363.311	123.91
363.523	76.15
363.735	104.47
363.947	31.9
364.159	142.79
364.371	104.1
364.583	-0.31
364.795	5.62
365.007	68.74
365.219	-7.34
365.431	43.57
365.643	-14.56
365.855	-42.33
366.067	-109.16
366.279	-13.08
366.491	-6.05
366.703	31.35
366.914	17.09
367.126	10.24
367.338	138.91
367.55	67.82
367.762	39.86
367.974	-3.83
368.185	-59.36
368.397	77.07
368.609	101.14
368.82	24.31
369.032	110.21
369.244	3.21
369.456	115.58
369.667	45.23
369.879	117.99
370.09	-19.93
370.302	56.53
370.514	135.2
370.725	86.33
370.937	-45.66
371.148	12.84
371.36	74.11
371.571	14.13
371.783	18.02
371.994	49.68
372.206	10.98
372.417	237.21
372.629	30.79
372.84	-0.68
373.051	-11.05
373.263	112.99
373.474	46.16
373.685	-2.53
373.897	51.9
374.108	81.15
374.319	-9.56
374.531	37.27
374.742	95.4
374.953	14.87
375.164	-65.47
375.375	59.86
375.587	-26.41
375.798	67.08
376.009	118.36
376.22	99.66
376.431	52.45
376.642	-12.34
376.853	88.18
377.065	56.15
377.276	42.83
377.487	-10.68
377.698	-56.22
377.909	47.64
378.12	92.62
378.331	-32.34
378.542	30.24
378.753	-23.63
378.964	11.72
379.174	70.04
379.385	20.06
379.596	-61.96
379.807	75.96
380.018	-56.03
380.229	175.93
380.44	199.81
380.65	-39.37
380.861	53.75
381.072	47.82
381.283	84.66
381.493	166.49
381.704	136.87
381.915	2.1
382.126	-41.96
382.336	108.18
382.547	116.14
382.757	23.2
382.968	-24.75
383.179	11.35
383.389	122.8
383.6	22.46
383.81	4.5
384.021	213.88
384.231	200.55
384.442	14.32
384.652	-7.71
384.863	148.16
385.073	110.4
385.284	128.72
385.494	54.3
385.705	27.46
385.915	13.58
386.125	1.17
386.336	10.06
386.546	-36.78
386.756	130.58
386.967	7.47
387.177	102.44
387.387	146.5
387.598	43.2
387.808	33.94
388.018	88.74
388.228	8.95
388.439	55.6
388.649	-9.01
388.859	-53.81
389.069	95.22
389.279	-20.3
389.489	23.02
389.699	18.57
389.909	1.17
390.12	-63.99
390.33	118.36
390.54	30.98
390.75	115.58
390.96	21.72
391.17	23.2
391.38	-16.6
391.59	-51.22
391.799	5.8
392.009	114.65
392.219	60.78
392.429	15.43
392.639	40.6
392.849	2.65
393.059	136.31
393.269	117.62
393.478	63
393.688	166.49
393.898	102.99
394.108	-49.55
394.317	6.91
394.527	-27.15
394.737	68
394.947	23.02
395.156	-6.97
395.366	78.74
395.576	140.94
395.785	75.41
395.995	109.47
396.204	55.41
396.414	-64.55
396.624	24.87
396.833	-20.3
397.043	-9.01
397.252	31.35
397.462	200.92
397.671	53.75
397.881	-43.81
398.09	20.61
398.299	-43.63
398.509	54.86
398.718	48.01
398.928	66.15
399.137	157.79
399.346	73.74
399.556	55.23
399.765	-92.87
399.974	-13.08
400.184	60.78
400.393	112.25
400.602	45.05
400.811	102.44
401.021	20.98
401.23	154.09
401.439	80.04
401.648	106.51
401.857	16.72
402.066	40.05
402.276	44.49
402.485	155.38
402.694	48.75
402.903	88.74
403.112	3.02
403.321	197.96
403.53	157.79
403.739	9.13
403.948	59.67
404.157	139.28
404.366	53.93
404.575	45.23
404.784	152.79
404.993	127.61
405.202	281.64
405.411	219.62
405.619	35.24
405.828	109.66
406.037	147.05
406.246	82.07
406.455	92.81
406.663	215.36
406.872	105.95
407.081	178.89
407.29	195.18
407.498	187.41
407.707	152.98
407.916	115.02
408.124	224.43
408.333	343.29
408.542	58.93
408.75	177.97
408.959	149.09
409.168	195
409.376	197.78
409.585	233.51
409.793	349.95
410.002	285.53
410.21	304.04
410.419	314.04
410.627	219.44
410.836	308.11
411.044	298.11
411.253	315.52
411.461	229.25
411.669	443.99
411.878	421.41
412.086	275.71
412.294	422.7
412.503	285.53
412.711	437.14
412.919	451.95
413.128	369.94
413.336	328.85
413.544	555.81
413.752	520.64
413.961	564.33
414.169	473.43
414.377	583.58
414.585	720.76
414.793	545.44
415.001	523.04
415.209	619.12
415.418	568.21
415.626	693.73
415.834	623.57
416.042	630.42
416.25	616.72
416.458	577.84
416.666	678.36
416.874	855.34
417.082	879.23
417.29	772.96
417.498	828.5
417.706	878.48
417.913	918.29
418.121	963.46
418.329	1175.06
418.537	1018.44
418.745	990.86
418.953	1116.56
419.161	1254.85
419.368	1243
419.576	1138.59
419.784	1265.95
419.992	1336.67
420.199	1473.48
420.407	1333.52
420.615	1555.31
420.822	1534.94
421.03	1546.23
421.238	1624.73
421.445	1612.14
421.653	1552.71
421.861	1752.84
422.068	1726.55
422.276	1827.81
422.483	1782.09
422.691	1927.22
422.898	2162.15
423.106	1907.23
423.313	2098.1
423.521	2213.61
423.728	2278.22
423.936	2257.3
424.143	2358.2
424.35	2560.54
424.558	2450.58
424.765	2539.25
424.973	2561.1
425.18	2581.83
425.387	2798.24
425.594	2770.29
425.802	3003.55
426.009	2851.74
426.216	2900.99
426.424	3066.68
426.631	3273.28
426.838	3105.55
427.045	3214.78
427.252	3352.51
427.459	3517.27
427.667	3573.55
427.874	3561.15
428.081	3637.97
428.288	3751.27
428.495	3789.04
428.702	4069.13
428.909	4066.54
429.116	3940.84
429.323	4190.76
429.53	4303.13
429.737	4367.93
429.944	4494.55
430.151	4588.78
430.358	4787.98
430.565	4738.55
430.772	4817.6
430.979	4963.66
431.185	5141.38
431.392	5182.48
431.599	5421.85
431.806	5525.89
432.013	5612.16
432.219	5759.89
432.426	5807.47
432.633	6064.61
432.84	6150.51
433.046	6222.15
433.253	6343.22
433.46	6604.62
433.666	6645.16
433.873	6932.29
434.08	7066.14
434.286	7269.96
434.493	7516.55
434.7	7452.5
434.906	7629.11
435.113	7752.22
435.319	8066.19
435.526	8073.04
435.732	8375.72
435.939	8358.13
436.145	8559.18
436.352	8903.14
436.558	8912.4
436.765	9313.94
436.971	9275.62
437.177	9468.7
437.384	9775.64
437.59	9794.53
437.796	9852.84
438.003	10166.82
438.209	10389.71
438.415	10445.06
438.622	10766.62
438.828	10970.63
439.034	10977.48
439.24	11058.01
439.447	11340.7
439.653	11254.99
439.859	11595.25
440.065	11490.28
440.271	11707.99
440.477	11693.36
440.683	12084.54
440.89	11978.46
441.096	12571.79
441.302	12277.62
441.508	12408.51
441.714	12253.93
441.92	12417.02
442.126	12474.23
442.332	12787.09
442.538	12769.32
442.744	12747.84
442.95	12871.88
443.156	12564.75
443.361	12834.3
443.567	12818.75
443.773	12653.24
443.979	12863.36
444.185	12534.95
444.391	12621.03
444.596	12545.13
444.802	12546.8
445.008	12627.7
445.214	12434.05
445.42	12409.8
445.625	12435.72
445.831	12287.99
446.037	12507.18
446.242	12254.67
446.448	11993.27
446.654	11862.94
446.859	11636.16
447.065	11594.88
447.27	11592.84
447.476	11295.16
447.682	11065.79
447.887	11188.34
448.093	11115.4
448.298	10634.26
448.504	10764.03
448.709	10432.29
448.915	10410.26
449.12	9963.18
449.325	10071.11
449.531	9917.08
449.736	9662.72
449.942	9383.55
450.147	9403.73
450.352	9338.56
450.558	8978.12
450.763	8758.56
450.968	8897.04
451.174	8579.73
451.379	8310.74
451.584	8194.67
451.789	8053.79
451.995	8073.59
452.2	7690.01
452.405	7647.62
452.61	7471.38
452.815	7641.7
453.02	7208.32
453.226	7142.41
453.431	7119.08
453.636	6834.73
453.841	6720.14
454.046	6661.45
454.251	6635.72
454.456	6391.54
454.661	6343.96
454.866	6258.43
455.071	6159.39
455.276	6019.62
455.481	5845.23
455.686	5816.91
455.891	5827.83
456.095	5665.1
456.3	5628.26
456.505	5400.93
456.71	5588.09
456.915	5336.32
457.12	5253.57
457.324	5047.34
457.529	5093.99
457.734	5036.23
457.939	4901.09
458.144	4780.57
458.348	4771.5
458.553	4821.3
458.758	4551.57
458.962	4561.2
459.167	4586.38
459.372	4479.93
459.576	4665.79
459.781	4412.91
459.985	4289.99
460.19	4303.69
460.394	4141.89
460.599	4172.8
460.803	4037.29
461.008	4128.56
461.212	3924.55
461.417	3962.5
461.621	3734.24
461.826	3768.86
462.03	3663.71
462.235	3680.18
462.439	3685.74
462.643	3819.95
462.848	3629.09
463.052	3463.4
463.256	3503.02
463.461	3329.92
463.665	3293.08
463.869	3351.58
464.074	3248.65
464.278	3186.45
464.482	3259.21
464.686	2990.77
464.89	3124.8
465.095	3284.57
