Data from FLMT087451__17__14-06-52-950.txt Node

Date: Tue Jun 04 14:06:52 JST 2024
User: power
Spectrometer: FLMT08745
Trigger mode: 0
Integration Time (sec): 2.000000E-1
Scans to average: 11
Electric dark correction enabled: true
Nonlinearity correction enabled: false
Boxcar width: 0
XAxis mode: Wavelengths
Number of Pixels in Spectrum: 3648
>>>>>Begin Spectral Data<<<<<
194.923	-335.71
195.148	-335.71
195.372	-335.71
195.597	-352
195.821	-322.38
196.046	75.82
196.271	-74.5
196.495	-99.3
196.72	-7.11
196.944	-34.33
197.169	-12.48
197.393	80.45
197.618	7.88
197.842	95.26
198.067	26.58
198.291	-115.78
198.516	57.5
198.74	-97.64
198.964	92.67
199.189	26.21
199.413	106.19
199.637	48.8
199.862	-10.44
200.086	23.8
200.31	166.35
200.535	18.07
200.759	191.53
200.983	-77.83
201.207	-54.13
201.432	-1.56
201.656	127.1
201.88	17.32
202.104	-23.03
202.328	65.46
202.552	84.53
202.777	27.88
203.001	47.69
203.225	-26.18
203.449	-169.1
203.673	35.1
203.897	8.25
204.121	24.36
204.345	91.38
204.569	-88.57
204.793	-9.15
205.017	31.76
205.241	54.35
205.465	-72.46
205.689	-22.48
205.912	31.76
206.136	-77.64
206.36	4
206.584	62.13
206.808	-84.31
207.032	78.23
207.255	62.87
207.479	96.56
207.703	1.4
207.927	7.14
208.15	-81.72
208.374	-6.19
208.598	-64.69
208.822	0.85
209.045	-45.25
209.269	24.91
209.492	212.08
209.716	129.14
209.94	54.16
210.163	59.72
210.387	121.55
210.61	83.6
210.834	-28.4
211.057	-15.81
211.281	-82.64
211.504	-40.99
211.728	-28.03
211.951	132.84
212.175	182.27
212.398	-20.07
212.622	-11.55
212.845	166.91
213.068	24.73
213.292	53.24
213.515	-55.06
213.738	-47.28
213.962	-26.37
214.185	-66.54
214.408	22.51
214.631	86.38
214.855	35.65
215.078	-15.26
215.301	71.01
215.524	-9.33
215.747	74.16
215.971	-35.81
216.194	-4.71
216.417	-34.33
216.64	36.76
216.863	717.29
217.086	93.04
217.309	-60.43
217.532	84.9
217.755	-65.61
217.978	44.91
218.201	137.47
218.424	128.77
218.647	-30.81
218.87	-21
219.093	113.78
219.316	135.81
219.539	-34.88
219.762	-25.44
219.985	28.99
220.207	-165.21
220.43	2.88
220.653	43.98
220.876	-41.92
221.099	139.88
221.321	23.06
221.544	-23.96
221.767	84.16
221.99	-29.14
222.212	36.21
222.435	77.12
222.658	101.74
222.88	-95.23
223.103	148.21
223.326	-109.49
223.548	43.61
223.771	-22.48
223.993	1.03
224.216	-25.81
224.438	21.77
224.661	-3.22
224.883	71.01
225.106	186.34
225.328	-34.51
225.551	121.37
225.773	-25.07
225.996	-29.51
226.218	4
226.44	65.09
226.663	22.88
226.885	-12.11
227.108	36.95
227.33	62.68
227.552	4.37
227.774	-1.74
227.997	28.99
228.219	41.02
228.441	100.08
228.663	167.09
228.886	9.92
229.108	-13.04
229.33	-30.07
229.552	-57.47
229.774	49.17
229.996	-0.82
230.219	98.04
230.441	-17.29
230.663	45.65
230.885	-26.74
231.107	14.18
231.329	24.73
231.551	113.96
231.773	-13.04
231.995	32.32
232.217	11.77
232.439	-26.37
232.661	-16
232.883	-5.45
233.105	-58.76
233.326	-28.4
233.548	111.92
233.77	-8.04
233.992	150.25
234.214	-10.07
234.436	-61.72
234.657	44.54
234.879	188.57
235.101	-89.86
235.323	25.1
235.544	21.03
235.766	76.38
235.988	126.36
236.21	94.34
236.431	155.61
236.653	93.97
236.874	150.99
237.096	56.76
237.318	-106.89
237.539	57.31
237.761	1.03
237.982	-3.78
238.204	178.75
238.425	-56.17
238.647	50.09
238.868	-16
239.09	83.23
239.311	-90.6
239.533	0.66
239.754	73.23
239.975	0.11
240.197	-31.92
240.418	-3.41
240.64	64.9
240.861	62.87
241.082	50.09
241.304	20.84
241.525	0.29
241.746	-3.59
241.967	-103.56
242.189	-4.89
242.41	136.36
242.631	243.92
242.852	-60.06
243.073	110.44
243.294	-0.45
243.516	46.57
243.737	7.14
243.958	-46.73
244.179	38.61
244.4	179.31
244.621	-35.07
244.842	17.51
245.063	137.84
245.284	50.46
245.505	38.98
245.726	54.16
245.947	128.03
246.168	-12.85
246.389	-11.74
246.61	79.71
246.831	114.15
247.052	-15.44
247.272	40.84
247.493	-11.55
247.714	119.7
247.935	-62.09
248.156	98.22
248.376	95.26
248.597	119.33
248.818	11.59
249.039	-38.95
249.259	-16.92
249.48	-83.75
249.701	50.09
249.921	-40.62
250.142	-46.54
250.363	77.12
250.583	16.03
250.804	71.38
251.025	131.18
251.245	91.56
251.466	93.6
251.686	-8.78
251.907	-65.06
252.127	111.18
252.348	45.46
252.568	-13.96
252.789	104.15
253.009	76.94
253.23	183.75
253.45	40.47
253.67	81.56
253.891	-50.43
254.111	131.18
254.331	57.31
254.552	30.28
254.772	58.61
254.992	16.95
255.213	-31.73
255.433	113.03
255.653	-2.3
255.873	77.49
256.093	89.34
256.314	-38.77
256.534	-62.83
256.754	165.24
256.974	-8.59
257.194	-22.29
257.414	-1.37
257.634	43.43
257.855	-5.82
258.075	-58.02
258.295	0.85
258.515	-54.5
258.735	71.38
258.955	41.21
259.175	-34.14
259.395	21.58
259.615	76.38
259.835	73.79
260.054	29.91
260.274	74.53
260.494	80.08
260.714	208.93
260.934	62.31
261.154	75.45
261.374	-19.15
261.593	10.48
261.813	-82.64
262.033	-4.52
262.253	38.98
262.472	48.43
262.692	38.06
262.912	49.35
263.132	50.83
263.351	100.26
263.571	192.45
263.791	46.39
264.01	180.42
264.23	45.46
264.449	-29.51
264.669	191.71
264.888	147.28
265.108	13.81
265.328	193.75
265.547	36.95
265.767	56.39
265.986	-75.24
266.205	85.27
266.425	28.25
266.644	73.42
266.864	-82.64
267.083	117.85
267.303	-2.11
267.522	59.72
267.741	44.54
267.961	115.44
268.18	-36.92
268.399	89.89
268.618	28.62
268.838	131.36
269.057	36.02
269.276	47.87
269.495	41.39
269.715	163.76
269.934	-25.07
270.153	116.55
270.372	-66.54
270.591	78.6
270.81	122.48
271.029	105.81
271.249	44.17
271.468	-14.52
271.687	131.36
271.906	68.23
272.125	113.78
272.344	121.37
272.563	10.85
272.782	32.13
273.001	-28.03
273.22	35.47
273.439	52.5
273.657	71.75
273.876	111.74
274.095	-81.72
274.314	114.52
274.533	148.21
274.752	-8.41
274.971	80.45
275.189	180.42
275.408	127.1
275.627	-13.22
275.846	121.37
276.064	33.43
276.283	-62.83
276.502	50.46
276.72	-52.47
276.939	1.77
277.158	17.88
277.376	-30.99
277.595	76.94
277.814	-1.93
278.032	96.19
278.251	-47.65
278.469	-33.77
278.688	34.17
278.906	218
279.125	36.58
279.343	11.4
279.562	49.72
279.78	-96.53
279.999	24.54
280.217	13.44
280.435	46.39
280.654	-51.91
280.872	78.6
281.091	57.87
281.309	67.68
281.527	130.44
281.746	41.76
281.964	-13.22
282.182	54.16
282.4	55.28
282.619	176.9
282.837	139.14
283.055	-10.44
283.273	0.85
283.491	47.32
283.71	91.75
283.928	14.18
284.146	5.48
284.364	-14.89
284.582	24.36
284.8	36.21
285.018	81.93
285.236	-82.83
285.454	136.18
285.672	62.31
285.89	3.81
286.108	-53.95
286.326	34.17
286.544	56.57
286.762	17.69
286.98	-73.57
287.198	155.8
287.416	313.16
287.634	124.7
287.851	39.91
288.069	56.94
288.287	28.99
288.505	-22.11
288.723	67.86
288.94	57.5
289.158	28.99
289.376	180.24
289.594	48.98
289.811	-26.74
290.029	11.77
290.247	203.01
290.464	101.93
290.682	-86.9
290.9	81.38
291.117	81.19
291.335	27.32
291.552	-60.06
291.77	63.79
291.987	16.4
292.205	37.13
292.422	39.54
292.64	114.15
292.857	-86.53
293.075	41.02
293.292	10.66
293.51	53.24
293.727	-1
293.945	36.02
294.162	30.65
294.379	36.02
294.597	52.5
294.814	42.69
295.031	49.72
295.249	87.3
295.466	34.73
295.683	42.13
295.9	78.6
296.118	0.29
296.335	-66.17
296.552	61.2
296.769	155.8
296.986	91
297.204	43.98
297.421	6.4
297.638	62.31
297.855	101.56
298.072	-15.26
298.289	81.38
298.506	-9.7
298.723	104.33
298.94	26.03
299.157	37.13
299.374	32.88
299.591	145.06
299.808	-40.25
300.025	-56.17
300.242	0.66
300.459	89.15
300.676	-47.47
300.893	-22.11
301.109	78.05
301.326	126.73
301.543	82.3
301.76	-25.99
301.977	-41.55
302.193	-11.18
302.41	119.14
302.627	-36.36
302.844	-16.74
303.06	-8.22
303.277	29.91
303.494	62.31
303.71	10.29
303.927	111.37
304.144	16.03
304.36	58.05
304.577	14.92
304.793	96.19
305.01	-20.26
305.227	-3.41
305.443	55.46
305.66	246.14
305.876	-79.5
306.093	17.69
306.309	47.13
306.526	-88.75
306.742	67.31
306.958	68.79
307.175	43.43
307.391	3.81
307.608	124.14
307.824	108.22
308.04	103.41
308.257	38.06
308.473	207.08
308.689	-16.55
308.905	127.47
309.122	-19.52
309.338	-50.06
309.554	89.89
309.77	48.43
309.986	57.68
310.203	-109.49
310.419	19.18
310.635	71.38
310.851	-32.47
311.067	128.03
311.283	41.21
311.499	-53.58
311.715	1.77
311.931	114.89
312.147	83.97
312.363	-85.24
312.579	88.23
312.795	83.78
313.011	-37.84
313.227	-19.89
313.443	132.29
313.659	76.57
313.875	13.44
314.091	107.67
314.307	112.48
314.523	3.63
314.738	27.14
314.954	153.95
315.17	-26.92
315.386	43.43
315.602	-11.74
315.817	10.85
316.033	8.81
316.249	-0.26
316.465	50.83
316.68	-13.22
316.896	64.35
317.112	-69.5
317.327	-15.44
317.543	250.58
317.758	16.03
317.974	87.86
318.19	91.93
318.405	18.25
318.621	46.02
318.836	1.77
319.052	-17.29
319.267	80.27
319.483	-28.59
319.698	73.42
319.914	-26.74
320.129	-1
320.344	135.44
320.56	74.53
320.775	146.91
320.99	62.68
321.206	70.83
321.421	105.44
321.636	14.73
321.852	71.94
322.067	34.54
322.282	-39.51
322.498	-21.37
322.713	99.71
322.928	99.52
323.143	17.88
323.358	44.91
323.574	150.99
323.789	-4.34
324.004	-20.81
324.219	40.84
324.434	127.84
324.649	14.55
324.864	88.04
325.079	-9.7
325.294	5.11
325.509	-76.35
325.724	122.48
325.939	-16.55
326.154	59.35
326.369	257.62
326.584	21.21
326.799	-26.74
327.014	139.88
327.229	3.07
327.444	70.46
327.659	-6
327.873	67.86
328.088	71.2
328.303	3.81
328.518	-26.18
328.733	-30.07
328.947	66.57
329.162	-21
329.377	23.25
329.591	105.44
329.806	-17.85
330.021	-33.77
330.235	143.77
330.45	70.09
330.665	-79.68
330.879	-21.55
331.094	81.93
331.309	37.13
331.523	42.5
331.738	46.76
331.952	79.71
332.167	129.14
332.381	-40.62
332.596	40.47
332.81	-36.18
333.025	-34.88
333.239	110.07
333.453	-23.03
333.668	64.72
333.882	103.41
334.097	27.88
334.311	50.09
334.525	80.27
334.74	42.69
334.954	-2.3
335.168	152.47
335.382	56.02
335.597	21.03
335.811	-34.7
336.025	45.09
336.239	-51.73
336.453	53.05
336.668	64.9
336.882	-43.58
337.096	69.72
337.31	63.05
337.524	70.64
337.738	41.02
337.952	35.28
338.166	28.43
338.38	57.87
338.594	118.59
338.808	-13.78
339.022	170.24
339.236	16.58
339.45	61.94
339.664	205.04
339.878	92.3
340.092	-26.92
340.306	-66.54
340.52	56.2
340.734	118.77
340.948	33.25
341.161	87.12
341.375	83.6
341.589	70.09
341.803	68.23
342.017	75.27
342.23	28.8
342.444	149.13
342.658	40.47
342.871	60.09
343.085	-29.7
343.299	-59.13
343.512	21.58
343.726	-38.95
343.94	53.24
344.153	105.07
344.367	122.29
344.58	8.44
344.794	-2.11
345.008	-50.43
345.221	-42.29
345.435	40.65
345.648	54.72
345.862	-6.74
346.075	34.17
346.288	26.21
346.502	126.73
346.715	72.12
346.929	-92.64
347.142	91.75
347.355	57.5
347.569	96.56
347.782	65.64
347.995	53.42
348.209	26.4
348.422	-75.79
348.635	62.5
348.848	85.82
349.062	-5.26
349.275	152.65
349.488	76.19
349.701	123.96
349.914	-132.07
350.128	64.72
350.341	14.92
350.554	-92.08
350.767	-8.22
350.98	74.16
351.193	22.51
351.406	-7.48
351.619	53.05
351.832	78.05
352.045	-8.96
352.258	-28.77
352.471	59.9
352.684	37.13
352.897	65.46
353.11	-26.92
353.323	89.15
353.536	-83.38
353.748	127.29
353.961	-47.1
354.174	11.22
354.387	11.96
354.6	-34.33
354.813	4.92
355.025	85.45
355.238	97.85
355.451	48.98
355.664	20.1
355.876	120.63
356.089	132.29
356.302	27.88
356.514	45.28
356.727	20.1
356.94	3.44
357.152	-42.47
357.365	35.1
357.577	-43.77
357.79	-52.65
358.002	-114.11
358.215	-44.69
358.427	-14.89
358.64	106.37
358.852	-36.36
359.065	-44.88
359.277	8.81
359.49	129.7
359.702	121.74
359.915	19.36
360.127	-25.81
360.339	-7.85
360.552	-24.88
360.764	35.65
360.976	72.68
361.189	-20.07
361.401	150.43
361.613	147.84
361.825	-67.28
362.038	38.06
362.25	131.36
362.462	57.68
362.674	5.66
362.886	159.87
363.099	118.96
363.311	109.89
363.523	72.49
363.735	130.81
363.947	26.58
364.159	125.44
364.371	103.04
364.583	14.73
364.795	19.36
365.007	85.27
365.219	-35.99
365.431	29.73
365.643	-24.51
365.855	-54.69
366.067	-97.64
366.279	7.51
366.491	-3.04
366.703	21.4
366.914	25.1
367.126	5.85
367.338	143.95
367.55	70.83
367.762	52.5
367.974	-11.93
368.185	-60.24
368.397	80.82
368.609	106
368.82	48.24
369.032	107.48
369.244	-1.37
369.456	108.41
369.667	42.69
369.879	172.28
370.09	-13.59
370.302	47.69
370.514	149.5
370.725	106
370.937	-44.14
371.148	-3.78
371.36	66.2
371.571	10.66
371.783	20.1
371.994	57.5
372.206	27.32
372.417	232.63
372.629	7.88
372.84	-1.37
373.051	6.59
373.263	115.07
373.474	44.91
373.685	-14.33
373.897	35.65
374.108	86.56
374.319	-22.85
374.531	46.76
374.742	93.6
374.953	1.03
375.164	-55.24
375.375	47.87
375.587	-17.29
375.798	73.79
376.009	113.22
376.22	99.71
376.431	25.47
376.642	-30.44
376.853	112.66
377.065	49.72
377.276	27.14
377.487	-12.67
377.698	-59.69
377.909	56.57
378.12	91.19
378.331	-37.1
378.542	4
378.753	26.95
378.964	30.47
379.174	85.27
379.385	52.31
379.596	-80.05
379.807	105.07
380.018	-50.06
380.229	189.86
380.44	185.42
380.65	-47.1
380.861	58.61
381.072	46.57
381.283	90.45
381.493	143.4
381.704	130.25
381.915	35.47
382.126	-41.55
382.336	134.32
382.547	111
382.757	33.25
382.968	-65.8
383.179	10.1
383.389	127.29
383.6	15.84
383.81	22.88
384.021	204.3
384.231	225.04
384.442	11.77
384.652	9.18
384.863	154.87
385.073	60.46
385.284	150.43
385.494	43.98
385.705	32.32
385.915	25.84
386.125	36.39
386.336	20.1
386.546	-22.66
386.756	122.48
386.967	-15.07
387.177	111.18
387.387	167.83
387.598	33.62
387.808	46.57
388.018	71.94
388.228	23.62
388.439	83.6
388.649	-21
388.859	-51.36
389.069	83.04
389.279	-38.03
389.489	14.73
389.699	30.65
389.909	-3.41
390.12	-65.61
390.33	126.73
390.54	25.47
390.75	129.51
390.96	29.73
391.17	23.43
391.38	-9.33
391.59	-80.24
391.799	3.63
392.009	98.41
392.219	50.65
392.429	31.39
392.639	10.1
392.849	10.1
393.059	119.7
393.269	106.74
393.478	89.52
393.688	160.98
393.898	108.22
394.108	-51.91
394.317	32.51
394.527	-33.03
394.737	91.19
394.947	31.76
395.156	-13.96
395.366	102.67
395.576	138.58
395.785	75.45
395.995	103.04
396.204	78.6
396.414	-63.76
396.624	7.51
396.833	-49.69
397.043	6.77
397.252	30.65
397.462	215.78
397.671	53.61
397.881	-66.54
398.09	31.02
398.299	-25.62
398.509	56.76
398.718	46.39
398.928	68.6
399.137	163.57
399.346	83.6
399.556	73.79
399.765	-57.47
399.974	-16.92
400.184	57.31
400.393	102.48
400.602	70.46
400.811	97.48
401.021	49.72
401.23	144.14
401.439	77.68
401.648	112.48
401.857	39.91
402.066	44.17
402.276	39.91
402.485	185.42
402.694	57.5
402.903	108.96
403.112	17.14
403.321	159.5
403.53	184.68
403.739	28.06
403.948	65.46
404.157	149.32
404.366	49.35
404.575	51.76
404.784	161.35
404.993	116.74
405.202	314.45
405.411	218.37
405.619	21.77
405.828	128.96
406.037	188.01
406.246	103.96
406.455	73.6
406.663	205.04
406.872	80.82
407.081	190.79
407.29	215.22
407.498	173.2
407.707	163.57
407.916	138.03
408.124	274.65
408.333	373.14
408.542	77.12
408.75	203.93
408.959	172.09
409.168	267.06
409.376	224.67
409.585	308.53
409.793	427.93
410.002	283.72
410.21	349.07
410.419	344.81
410.627	274.09
410.836	329.26
411.044	324.63
411.253	358.51
411.461	287.24
411.669	500.5
411.878	484.58
412.086	310.56
412.294	457.92
412.503	309.08
412.711	472.18
412.919	523.27
413.128	427.93
413.336	415.16
413.544	626.94
413.752	572.52
413.961	613.25
414.169	537.9
414.377	651.57
414.585	775.23
414.793	618.61
415.001	600.1
415.209	718.4
415.418	624.54
415.626	770.05
415.834	732.84
416.042	731.54
416.25	698.03
416.458	668.23
416.666	765.42
416.874	922.41
417.082	989.42
417.29	854.46
417.498	967.76
417.706	996.46
417.913	1039.04
418.121	1123.08
418.329	1302.47
418.537	1139.74
418.745	1149.56
418.953	1252.49
419.161	1388
419.368	1300.8
419.576	1243.78
419.784	1393.92
419.992	1434.84
420.199	1615.89
420.407	1511.11
420.615	1662.17
420.822	1684.94
421.03	1674.2
421.238	1778.61
421.445	1789.91
421.653	1705.3
421.861	1917.46
422.068	1865.62
422.276	2049.82
422.483	1974.48
422.691	2119.62
422.898	2379.16
423.106	2101.66
423.313	2274.01
423.521	2419.34
423.728	2474.32
423.936	2442.85
424.143	2558.74
424.35	2751.08
424.558	2656.3
424.765	2721.83
424.973	2718.31
425.18	2790.33
425.387	2972.68
425.594	2979.71
425.802	3243.7
426.009	3074.5
426.216	3140.59
426.424	3275.36
426.631	3471.04
426.838	3338.49
427.045	3437.16
427.252	3556.75
427.459	3780.57
427.667	3776.87
427.874	3733.73
428.081	3850.55
428.288	3906.45
428.495	4057.33
428.702	4296.7
428.909	4214.87
429.116	4185.25
429.323	4450.35
429.53	4515.89
429.737	4625.3
429.944	4787.65
430.151	4839.67
430.358	5066.08
430.565	5048.5
430.772	5099.41
430.979	5253.43
431.185	5394.68
431.392	5457.44
431.599	5789.74
431.806	5731.43
432.013	5907.85
432.219	6107.97
432.426	6087.79
432.633	6326.98
432.84	6403.62
433.046	6512.47
433.253	6716.11
433.46	6939
433.666	6968.07
433.873	7184.48
434.08	7394.04
434.286	7621.19
434.493	7836.49
434.7	7727.83
434.906	7906.66
435.113	8112.89
435.319	8439.08
435.526	8371.51
435.732	8702.51
435.939	8698.07
436.145	8924.11
436.352	9228.46
436.558	9182.18
436.765	9612.41
436.971	9596.12
437.177	9811.05
437.384	9958.97
437.59	10040.61
437.796	10183.89
438.003	10384.57
438.209	10705.39
438.415	10726.31
438.622	11059.17
438.828	11323.16
439.034	11277.99
439.24	11321.49
439.447	11593.07
439.653	11524.76
439.859	11886.68
440.065	11800.23
440.271	11949.07
440.477	12030.53
440.683	12297.48
440.89	12260.82
441.096	12917.28
441.302	12489.82
441.508	12660.14
441.714	12584.79
441.92	12724.56
442.126	12713.27
442.332	13043.72
442.538	12990.22
442.744	12892.47
442.95	13108.89
443.156	12855.26
443.361	13126.1
443.567	12983.74
443.773	12866.56
443.979	13039.65
444.185	12747.33
444.391	12759.18
444.596	12771.4
444.802	12790.47
445.008	12844.71
445.214	12605.34
445.42	12662.36
445.625	12589.42
445.831	12530.74
446.037	12600.34
446.242	12386.52
446.448	12118.46
446.654	12008.31
446.859	11847.25
447.065	11709.15
447.27	11683.78
447.476	11389.43
447.682	11216.71
447.887	11319.46
448.093	11231.34
448.298	10752.79
448.504	10844.24
448.709	10516.19
448.915	10574.51
449.12	10048.94
449.325	10181.12
449.531	10035.05
449.736	9706.45
449.942	9557.06
450.147	9450.98
450.352	9433.21
450.558	9007.79
450.763	8808.41
450.968	9008.53
451.174	8631.43
451.379	8304.68
451.584	8250.62
451.789	8114.74
451.995	8163.98
452.2	7711.35
452.405	7659.88
452.61	7555.84
452.815	7648.04
453.02	7197.62
453.226	7092.84
453.431	7119.87
453.636	6899.76
453.841	6772.76
454.046	6727.96
454.251	6646.87
454.456	6481.56
454.661	6341.97
454.866	6242.56
455.071	6160.18
455.276	6096.86
455.481	5913.03
455.686	5851.39
455.891	5799.18
456.095	5674.96
456.3	5607.76
456.505	5378.76
456.71	5517.79
456.915	5340.44
457.12	5261.58
457.324	5019.25
457.529	5135.32
457.734	5002.03
457.939	4909.47
458.144	4749.89
458.348	4708.05
458.553	4741
458.758	4516.44
458.962	4501.82
459.167	4541.81
459.372	4503.86
459.576	4627.52
459.781	4350.57
459.985	4279.85
460.19	4275.78
460.394	4113.24
460.599	4107.32
460.803	3971.06
461.008	4003.83
461.212	3873.5
461.417	3911.45
461.621	3698.74
461.826	3724.66
462.03	3563.41
462.235	3540.83
462.439	3558.05
462.643	3702.26
462.848	3549.72
463.052	3324.97
463.256	3394.02
463.461	3202.79
463.665	3200.2
463.869	3240.93
464.074	3090.05
464.278	3028.96
464.482	3159.47
464.686	2845.87
464.89	2932.88
465.095	3112.08
465.299	2746.27
