Data from FLMT087451__23__14-14-40-108.txt Node

Date: Tue Jun 04 14:14:40 JST 2024
User: power
Spectrometer: FLMT08745
Trigger mode: 0
Integration Time (sec): 5.000000E-3
Scans to average: 11
Electric dark correction enabled: true
Nonlinearity correction enabled: false
Boxcar width: 0
XAxis mode: Wavelengths
Number of Pixels in Spectrum: 3648
>>>>>Begin Spectral Data<<<<<
194.923	-4.2
195.148	-4.2
195.372	-4.2
195.597	-14.93
195.821	-7.53
196.046	1.17
196.271	11.54
196.495	-7.34
196.72	27.09
196.944	-8.45
197.169	10.61
197.393	-5.49
197.618	-13.82
197.842	-6.05
198.067	25.42
198.291	-21.97
198.516	-12.71
198.74	-6.42
198.964	17.46
199.189	27.28
199.413	27.83
199.637	-2.34
199.862	25.24
200.086	10.06
200.31	38.01
200.535	21.54
200.759	16.17
200.983	-14.93
201.207	22.46
201.432	0.62
201.656	42.27
201.88	16.35
202.104	26.53
202.328	14.87
202.552	24.31
202.777	0.43
203.001	38.75
203.225	13.76
203.449	23.76
203.673	18.2
203.897	19.5
204.121	24.87
204.345	26.16
204.569	1.36
204.793	20.98
205.017	27.46
205.241	28.57
205.465	-11.42
205.689	13.58
205.912	21.91
206.136	30.61
206.36	2.28
206.584	16.54
206.808	15.06
207.032	21.54
207.255	37.09
207.479	3.58
207.703	16.54
207.927	35.79
208.15	0.25
208.374	40.79
208.598	18.76
208.822	30.61
209.045	-1.05
209.269	21.35
209.492	16.72
209.716	20.24
209.94	5.43
210.163	63.56
210.387	16.17
210.61	21.72
210.834	3.39
211.057	24.31
211.281	12.84
211.504	23.94
211.728	12.28
211.951	32.64
212.175	19.13
212.398	32.27
212.622	8.76
212.845	48.01
213.068	22.28
213.292	34.31
213.515	20.06
213.738	37.09
213.962	36.35
214.185	22.28
214.408	21.72
214.631	-5.31
214.855	-2.16
215.078	25.05
215.301	18.57
215.524	31.9
215.747	20.61
215.971	34.5
216.194	21.54
216.417	36.9
216.64	17.65
216.863	62.08
217.086	14.5
217.309	46.71
217.532	39.86
217.755	43.38
217.978	36.35
218.201	51.53
218.424	30.61
218.647	21.91
218.87	32.83
219.093	46.34
219.316	13.21
219.539	33.94
219.762	29.31
219.985	37.83
220.207	24.68
220.43	21.17
220.653	21.91
220.876	20.06
221.099	18.94
221.321	34.87
221.544	-2.34
221.767	61.34
221.99	47.64
222.212	40.97
222.435	16.35
222.658	38.57
222.88	23.02
223.103	53.19
223.326	33.57
223.548	21.17
223.771	14.32
223.993	22.09
224.216	19.5
224.438	26.72
224.661	9.69
224.883	63.93
225.106	20.8
225.328	44.86
225.551	1.54
225.773	34.68
225.996	44.49
226.218	41.9
226.44	18.02
226.663	32.09
226.885	29.13
227.108	28.2
227.33	42.46
227.552	7.65
227.774	10.61
227.997	37.27
228.219	13.21
228.441	21.17
228.663	28.2
228.886	28.94
229.108	32.09
229.33	56.9
229.552	15.43
229.774	30.42
229.996	22.65
230.219	46.71
230.441	15.43
230.663	37.64
230.885	13.39
231.107	31.9
231.329	44.12
231.551	32.46
231.773	42.83
231.995	47.64
232.217	15.24
232.439	24.87
232.661	20.24
232.883	28.2
233.105	38.2
233.326	32.83
233.548	40.6
233.77	48.75
233.992	37.27
234.214	52.45
234.436	19.87
234.657	26.16
234.879	47.27
235.101	28.76
235.323	25.79
235.544	14.69
235.766	11.17
235.988	42.83
236.21	20.24
236.431	23.57
236.653	24.31
236.874	30.98
237.096	22.46
237.318	33.94
237.539	6.73
237.761	28.2
237.982	33.01
238.204	41.16
238.425	25.42
238.647	20.61
238.868	23.76
239.09	45.97
239.311	9.69
239.533	23.76
239.754	26.72
239.975	29.31
240.197	25.98
240.418	35.98
240.64	28.39
240.861	31.16
241.082	29.68
241.304	38.01
241.525	28.2
241.746	41.9
241.967	8.21
242.189	35.98
242.41	29.13
242.631	61.71
242.852	16.91
243.073	37.83
243.294	7.65
243.516	60.23
243.737	13.76
243.958	36.53
244.179	40.97
244.4	31.16
244.621	15.24
244.842	28.94
245.063	29.68
245.284	25.61
245.505	34.68
245.726	47.45
245.947	27.83
246.168	28.57
246.389	20.06
246.61	47.45
246.831	13.58
247.052	60.41
247.272	15.06
247.493	32.46
247.714	44.31
247.935	38.38
248.156	46.71
248.376	33.75
248.597	15.61
248.818	65.97
249.039	23.76
249.259	18.57
249.48	12.47
249.701	17.65
249.921	21.54
250.142	51.9
250.363	18.39
250.583	45.6
250.804	25.98
251.025	52.82
251.245	24.13
251.466	30.79
251.686	37.27
251.907	31.16
252.127	25.05
252.348	42.27
252.568	0.62
252.789	45.6
253.009	35.05
253.23	47.27
253.45	41.72
253.67	22.28
253.891	25.98
254.111	29.68
254.331	24.68
254.552	19.13
254.772	21.54
254.992	35.42
255.213	10.06
255.433	34.87
255.653	31.9
255.873	28.57
256.093	23.02
256.314	33.01
256.534	7.47
256.754	44.12
256.974	30.61
257.194	37.27
257.414	32.83
257.634	51.34
257.855	25.05
258.075	49.31
258.295	22.46
258.515	32.46
258.735	38.75
258.955	37.27
259.175	12.47
259.395	39.49
259.615	7.47
259.835	54.49
260.054	20.98
260.274	24.5
260.494	42.09
260.714	50.79
260.934	40.79
261.154	43.75
261.374	13.02
261.593	37.83
261.813	36.16
262.033	16.91
262.253	23.2
262.472	42.27
262.692	19.31
262.912	42.09
263.132	26.72
263.351	43.38
263.571	6.17
263.791	27.09
264.01	48.93
264.23	47.82
264.449	17.65
264.669	49.12
264.888	26.72
265.108	48.19
265.328	42.46
265.547	43.2
265.767	8.58
265.986	55.78
266.205	-11.79
266.425	32.64
266.644	30.98
266.864	31.35
267.083	29.5
267.303	37.27
267.522	-0.86
267.741	45.97
267.961	17.09
268.18	41.9
268.399	13.76
268.618	39.31
268.838	19.69
269.057	48.01
269.276	23.57
269.495	17.65
269.715	13.76
269.934	57.27
270.153	44.12
270.372	23.2
270.591	25.24
270.81	40.42
271.029	34.31
271.249	48.19
271.468	33.38
271.687	52.45
271.906	27.28
272.125	51.9
272.344	32.27
272.563	46.16
272.782	40.23
273.001	32.83
273.22	50.42
273.439	39.31
273.657	29.68
273.876	52.45
274.095	47.27
274.314	49.86
274.533	20.98
274.752	32.64
274.971	45.05
275.189	58.75
275.408	7.65
275.627	33.01
275.846	27.46
276.064	24.5
276.283	28.2
276.502	51.53
276.72	19.13
276.939	38.2
277.158	41.72
277.376	22.28
277.595	19.87
277.814	38.01
278.032	30.61
278.251	26.9
278.469	36.53
278.688	44.68
278.906	6.91
279.125	58.01
279.343	1.17
279.562	37.64
279.78	18.57
279.999	47.82
280.217	27.28
280.435	50.23
280.654	15.43
280.872	50.6
281.091	42.64
281.309	49.31
281.527	32.46
281.746	18.94
281.964	19.5
282.182	68
282.4	26.16
282.619	53.75
282.837	25.42
283.055	18.94
283.273	23.76
283.491	23.39
283.71	21.91
283.928	29.68
284.146	10.24
284.364	66.34
284.582	14.32
284.8	34.5
285.018	27.46
285.236	43.57
285.454	30.24
285.672	29.68
285.89	15.06
286.108	43.94
286.326	42.64
286.544	65.6
286.762	16.91
286.98	32.27
287.198	32.46
287.416	48.75
287.634	33.38
287.851	71.71
288.069	19.31
288.287	29.13
288.505	28.2
288.723	45.6
288.94	13.95
289.158	61.15
289.376	29.13
289.594	37.64
289.811	33.38
290.029	43.75
290.247	26.53
290.464	41.16
290.682	21.17
290.9	60.04
291.117	40.05
291.335	38.01
291.552	14.5
291.77	62.26
291.987	21.35
292.205	29.68
292.422	16.35
292.64	42.27
292.857	44.31
293.075	28.02
293.292	28.39
293.51	53.38
293.727	56.71
293.945	64.12
294.162	38.38
294.379	55.97
294.597	17.46
294.814	43.57
295.031	29.31
295.249	33.75
295.466	18.57
295.683	19.5
295.9	42.27
296.118	13.95
296.335	24.87
296.552	45.97
296.769	21.17
296.986	30.79
297.204	33.75
297.421	50.23
297.638	20.24
297.855	51.34
298.072	20.24
298.289	33.57
298.506	36.16
298.723	47.64
298.94	21.35
299.157	42.27
299.374	24.5
299.591	39.31
299.808	18.94
300.025	22.65
300.242	46.9
300.459	46.9
300.676	18.94
300.893	45.79
301.109	46.16
301.326	35.98
301.543	32.09
301.76	40.42
301.977	30.79
302.193	52.45
302.41	18.02
302.627	46.9
302.844	40.05
303.06	46.34
303.277	54.86
303.494	65.6
303.71	28.94
303.927	61.34
304.144	12.47
304.36	52.82
304.577	24.87
304.793	60.41
305.01	36.53
305.227	44.31
305.443	12.28
305.66	27.09
305.876	41.16
306.093	53.38
306.309	10.8
306.526	20.98
306.742	22.28
306.958	37.83
307.175	7.65
307.391	43.94
307.608	30.24
307.824	48.01
308.04	37.64
308.257	54.86
308.473	46.34
308.689	31.72
308.905	36.9
309.122	40.23
309.338	29.13
309.554	44.68
309.77	45.6
309.986	45.42
310.203	35.24
310.419	55.41
310.635	34.31
310.851	24.5
311.067	45.97
311.283	24.31
311.499	19.31
311.715	53.75
311.931	37.46
312.147	36.53
312.363	38.01
312.579	33.38
312.795	29.31
313.011	33.57
313.227	33.57
313.443	59.3
313.659	45.79
313.875	38.38
314.091	34.5
314.307	43.01
314.523	48.01
314.738	46.34
314.954	34.31
315.17	33.57
315.386	23.02
315.602	51.53
315.817	13.58
316.033	38.94
316.249	38.57
316.465	33.75
316.68	30.98
316.896	42.09
317.112	31.35
317.327	36.72
317.543	43.94
317.758	38.57
317.974	6.54
318.19	58.93
318.405	22.28
318.621	44.12
318.836	39.31
319.052	46.9
319.267	21.91
319.483	27.83
319.698	23.94
319.914	23.02
320.129	24.13
320.344	40.6
320.56	34.87
320.775	34.12
320.99	19.31
321.206	49.49
321.421	48.75
321.636	43.2
321.852	19.5
322.067	55.04
322.282	46.34
322.498	44.31
322.713	28.39
322.928	50.23
323.143	24.87
323.358	30.61
323.574	27.46
323.789	41.34
324.004	28.2
324.219	37.46
324.434	41.53
324.649	47.45
324.864	41.53
325.079	49.31
325.294	13.76
325.509	40.05
325.724	36.16
325.939	18.39
326.154	37.27
326.369	38.01
326.584	44.49
326.799	14.87
327.014	40.6
327.229	27.46
327.444	20.43
327.659	62.45
327.873	16.91
328.088	50.42
328.303	30.98
328.518	40.23
328.733	19.5
328.947	62.63
329.162	13.95
329.377	48.93
329.591	17.09
329.806	7.47
330.021	28.2
330.235	41.16
330.45	39.86
330.665	35.05
330.879	29.87
331.094	49.68
331.309	48.38
331.523	30.98
331.738	36.72
331.952	40.05
332.167	21.91
332.381	32.64
332.596	29.13
332.81	39.31
333.025	47.08
333.239	31.9
333.453	16.91
333.668	53.19
333.882	30.42
334.097	52.08
334.311	37.09
334.525	36.53
334.74	21.17
334.954	42.27
335.168	31.72
335.382	38.75
335.597	22.46
335.811	42.46
336.025	30.42
336.239	33.38
336.453	29.68
336.668	45.42
336.882	25.79
337.096	47.82
337.31	20.98
337.524	54.86
337.738	27.83
337.952	65.78
338.166	39.86
338.38	51.34
338.594	37.09
338.808	33.75
339.022	42.46
339.236	53.56
339.45	36.9
339.664	47.08
339.878	26.35
340.092	35.05
340.306	42.46
340.52	18.94
340.734	27.28
340.948	53.93
341.161	56.15
341.375	52.45
341.589	19.5
341.803	62.26
342.017	51.9
342.23	33.2
342.444	8.95
342.658	17.83
342.871	54.67
343.085	54.3
343.299	33.57
343.512	28.02
343.726	20.06
343.94	43.57
344.153	32.09
344.367	63.19
344.58	15.8
344.794	37.46
345.008	31.35
345.221	52.64
345.435	32.27
345.648	32.64
345.862	10.24
346.075	37.09
346.288	18.94
346.502	25.42
346.715	42.09
346.929	35.98
347.142	42.64
347.355	26.72
347.569	44.86
347.782	45.42
347.995	41.34
348.209	63
348.422	22.09
348.635	77.81
348.848	28.94
349.062	42.83
349.275	56.34
349.488	61.71
349.701	38.2
349.914	37.64
350.128	28.57
350.341	39.86
350.554	47.64
350.767	63.37
350.98	26.35
351.193	57.45
351.406	45.79
351.619	63.37
351.832	37.27
352.045	52.82
352.258	11.54
352.471	30.24
352.684	30.98
352.897	31.9
353.11	26.35
353.323	43.57
353.536	25.24
353.748	53.75
353.961	27.83
354.174	58.01
354.387	27.28
354.6	29.13
354.813	14.69
355.025	39.49
355.238	15.98
355.451	65.23
355.664	15.43
355.876	56.15
356.089	48.75
356.302	39.68
356.514	36.53
356.727	37.83
356.94	37.09
357.152	34.87
357.365	43.38
357.577	28.94
357.79	29.87
358.002	38.2
358.215	63.75
358.427	32.27
358.64	44.68
358.852	18.02
359.065	45.79
359.277	37.27
359.49	47.82
359.702	43.01
359.915	39.49
360.127	26.53
360.339	27.83
360.552	64.67
360.764	22.46
360.976	49.12
361.189	24.87
361.401	13.21
361.613	34.12
361.825	62.45
362.038	23.02
362.25	39.68
362.462	16.17
362.674	17.46
362.886	27.09
363.099	38.75
363.311	24.31
363.523	40.6
363.735	27.65
363.947	60.04
364.159	15.43
364.371	39.86
364.583	27.83
364.795	30.98
365.007	47.45
365.219	40.05
365.431	42.27
365.643	56.53
365.855	12.84
366.067	45.23
366.279	44.68
366.491	41.34
366.703	22.09
366.914	48.93
367.126	29.31
367.338	31.9
367.55	44.49
367.762	42.64
367.974	38.38
368.185	25.42
368.397	39.31
368.609	49.49
368.82	55.97
369.032	48.19
369.244	28.57
369.456	34.5
369.667	28.02
369.879	47.08
370.09	20.61
370.302	43.57
370.514	34.68
370.725	63.37
370.937	34.87
371.148	54.49
371.36	32.46
371.571	31.35
371.783	40.6
371.994	35.79
372.206	23.76
372.417	50.05
372.629	40.97
372.84	61.71
373.051	27.09
373.263	44.86
373.474	29.87
373.685	27.46
373.897	33.94
374.108	46.34
374.319	17.65
374.531	54.12
374.742	31.72
374.953	47.45
375.164	37.64
375.375	30.98
375.587	8.76
375.798	50.23
376.009	45.05
376.22	41.34
376.431	13.95
376.642	39.31
376.853	25.42
377.065	52.45
377.276	41.53
377.487	38.38
377.698	39.68
377.909	41.34
378.12	40.05
378.331	36.72
378.542	28.02
378.753	48.01
378.964	37.27
379.174	29.13
379.385	34.31
379.596	61.34
379.807	28.02
380.018	35.61
380.229	52.08
380.44	34.87
380.65	45.23
380.861	47.08
381.072	47.45
381.283	45.05
381.493	38.57
381.704	40.05
381.915	37.09
382.126	49.68
382.336	41.34
382.547	45.42
382.757	19.87
382.968	43.01
383.179	45.97
383.389	49.49
383.6	17.28
383.81	34.12
384.021	37.46
384.231	61.89
384.442	38.2
384.652	43.57
384.863	35.61
385.073	69.85
385.284	37.83
385.494	28.76
385.705	41.16
385.915	41.72
386.125	43.38
386.336	51.53
386.546	41.72
386.756	36.72
386.967	19.13
387.177	54.67
387.387	34.31
387.598	62.45
387.808	4.32
388.018	38.2
388.228	36.9
388.439	38.94
388.649	35.79
388.859	50.97
389.069	42.27
389.279	46.16
389.489	36.72
389.699	67.26
389.909	34.31
390.12	46.16
390.33	22.83
390.54	39.12
390.75	27.28
390.96	54.49
391.17	21.91
391.38	54.86
391.59	37.27
391.799	28.2
392.009	48.75
392.219	50.05
392.429	40.05
392.639	28.02
392.849	48.56
393.059	57.27
393.269	46.16
393.478	55.6
393.688	70.04
393.898	77.07
394.108	45.42
394.317	62.45
394.527	32.27
394.737	56.15
394.947	49.68
395.156	70.04
395.366	52.64
395.576	55.04
395.785	37.64
395.995	46.16
396.204	66.52
396.414	37.46
396.624	39.49
396.833	70.59
397.043	46.34
397.252	70.41
397.462	54.12
397.671	44.31
397.881	78.18
398.09	63.37
398.299	65.41
398.509	67.63
398.718	63.56
398.928	66.89
399.137	86.7
399.346	68.56
399.556	86.15
399.765	63
399.974	59.12
400.184	75.41
400.393	60.23
400.602	80.59
400.811	83.74
401.021	83.18
401.23	68.56
401.439	106.32
401.648	112.62
401.857	100.21
402.066	106.14
402.276	102.07
402.485	94.11
402.694	111.51
402.903	121.13
403.112	120.95
403.321	119.1
403.53	115.95
403.739	141.68
403.948	152.42
404.157	128.91
404.366	138.54
404.575	148.72
404.784	162.6
404.993	170.56
405.202	174.45
405.411	181.67
405.619	170.75
405.828	209.07
406.037	214.44
406.246	227.21
406.455	231.65
406.663	232.02
406.872	263.5
407.081	270.9
407.29	262.02
407.498	285.34
407.707	290.15
407.916	320.14
408.124	308.11
408.333	337.73
408.542	356.24
408.75	369.94
408.959	394.2
409.168	399.19
409.376	436.96
409.585	432.7
409.793	450.84
410.002	443.07
410.21	501.57
410.419	506.38
410.627	540.07
410.836	523.04
411.044	572.1
411.253	604.13
411.461	652.82
411.669	660.96
411.878	700.21
412.086	687.25
412.294	742.79
412.503	772.78
412.711	787.03
412.919	822.95
413.128	876.63
413.336	896.44
413.544	929.58
413.752	966.79
413.961	1014.18
414.169	1045.65
414.377	1069.54
414.585	1131.37
414.793	1191.9
415.001	1221.52
415.209	1260.4
415.418	1318.53
415.626	1386.47
415.834	1407.76
416.042	1463.48
416.25	1532.17
416.458	1577.89
416.666	1634.35
416.874	1707.66
417.082	1738.03
417.29	1811.52
417.498	1845.58
417.706	1956.66
417.913	2036.26
418.121	2092.73
418.329	2217.69
418.537	2244.9
418.745	2325.43
418.953	2366.53
419.161	2459.09
419.368	2527.4
419.576	2686.06
419.784	2741.59
419.992	2903.21
420.199	2997.07
420.407	3017.62
420.615	3124.43
420.822	3202.56
421.03	3370.65
421.238	3449.89
421.445	3646.3
421.653	3554.67
421.861	3705.36
422.068	3909.74
422.276	4008.97
422.483	4143.18
422.691	4284.06
422.898	4468.63
423.106	4512.88
423.313	4767.98
423.521	4887.39
423.728	5052.34
423.936	5158.6
424.143	5297.63
424.35	5604.57
424.558	5670.84
424.765	5804.87
424.973	5912.06
425.18	6110.15
425.387	6409.13
425.594	6421.53
425.802	6720.14
426.009	6825.47
426.216	7024.12
426.424	7242.19
426.631	7538.58
426.838	7638.36
427.045	7814.42
427.252	8028.98
427.459	8351.65
427.667	8464.21
427.874	8744.68
428.081	8825.02
428.288	9061.61
428.495	9521.1
428.702	9699.19
428.909	10009.27
429.116	10041.86
429.323	10548.18
429.53	10551.32
429.737	11098.18
429.944	11074.3
430.151	11544.52
430.358	11673.19
430.565	11729.09
430.772	12041.59
430.979	12407.58
431.185	12793.75
431.392	13035.16
431.599	13296.37
431.806	13475.94
432.013	13838.79
432.219	14087.79
432.426	14148.88
432.633	14852.91
432.84	14940.29
433.046	15240.75
433.253	15606.93
433.46	15864.81
433.666	16289.49
433.873	16499.98
434.08	16714.72
434.286	17262.33
434.493	17535.2
434.7	17711.63
434.906	17987.65
435.113	18436.58
435.319	18838.68
435.526	19203.74
435.732	19621.02
435.939	19599.17
436.145	20262.3
436.352	20903.2
436.558	20898.39
436.765	21244.57
436.971	21738.86
437.177	22068.2
437.384	22909.97
437.59	22802.41
437.796	22931.81
438.003	23627.7
438.209	23951.86
438.415	24289.34
438.622	25040.77
438.828	25740.18
439.034	25851.44
439.24	26352.2
439.447	26776.33
439.653	27039.39
439.859	28199.95
440.065	27802.11
440.271	28508
440.477	28781.61
440.683	29665.4
440.89	30256.33
441.096	31179.37
441.302	30781.71
441.508	31491.49
441.714	31999.29
441.92	32501.54
442.126	33110.42
442.332	34021.98
442.538	34343.35
442.744	34641.78
442.95	35493.36
443.156	35398.57
443.361	35963.39
443.567	36779.43
443.773	36626.14
443.979	37245.02
444.185	37404.6
444.391	38001.45
444.596	38370.96
444.802	38640.13
445.008	38481.85
445.214	39319.54
445.42	39226.06
445.625	40382.72
445.831	40180.57
446.037	41245.78
446.242	41206.35
446.448	41223.2
446.654	41555.5
446.859	41511.99
447.065	41867.25
447.27	41802.64
447.476	41629.73
447.682	41778.57
447.887	42150.12
448.093	42226.02
448.298	41364.45
448.504	42448.17
448.709	41775.8
448.915	41883.54
449.12	41051.77
449.325	41669.35
449.531	41775.43
449.736	40593.03
449.942	40709.84
450.147	40661.89
450.352	40668.37
450.558	39507.45
450.763	38915.6
450.968	39070.18
451.174	39212.91
451.379	37788.18
451.584	37433.11
451.789	37471.24
451.995	37261.87
452.2	36655.95
452.405	36844.41
452.61	35760.68
452.815	35805.48
453.02	34436.47
453.226	34412.41
453.431	33842.59
453.636	33414.39
453.841	32566.51
454.046	32387.87
454.251	32196.45
454.456	31244.34
454.661	30562.71
454.866	30185.42
455.071	29476.39
455.276	29323.48
455.481	28344.16
455.686	28193.1
455.891	28261.04
456.095	27265.99
456.3	27087.71
456.505	26282.6
456.71	26215.02
456.915	25621.51
457.12	25080.76
457.324	24389.31
457.529	24441.7
457.734	23510.52
457.939	23691.94
458.144	23162.85
458.348	23054
458.553	22793.52
458.758	21953.24
458.962	21926.02
459.167	21701.47
459.372	21106.1
459.576	21248.46
459.781	20803.79
459.985	20522.4
460.19	20359.86
460.394	20076.8
460.599	19857.8
460.803	19489.95
461.008	19236.33
461.212	18769.07
461.417	18718.16
461.621	18274.23
461.826	18237.94
462.03	18056.33
462.235	17876.95
462.439	17777.9
462.643	17300.46
462.848	17200.87
463.052	17192.16
463.256	17017.96
463.461	16458.7
463.665	16495.35
463.869	16532.19
464.074	16240.8
464.278	15891.1
464.482	15833.34
464.686	15752.44
464.89	15678.57
465.095	15561.76
465.299	15277.59
465.503	15064.88
465.707	14944.73
465.911	14818.85
466.115	14837.36
466.319	14674.45
466.523	14401.2
466.727	14192.94
466.931	14241.63
467.135	13986.89
467.339	13833.05
467.543	14052.61
467.747	13769.74
467.951	13655.89
