Data from FLMT087451__25__14-20-14-026.txt Node

Date: Tue Jun 04 14:20:14 JST 2024
User: power
Spectrometer: FLMT08745
Trigger mode: 0
Integration Time (sec): 1.000000E-3
Scans to average: 11
Electric dark correction enabled: true
Nonlinearity correction enabled: false
Boxcar width: 0
XAxis mode: Wavelengths
Number of Pixels in Spectrum: 3648
>>>>>Begin Spectral Data<<<<<
194.923	16.91
195.148	16.91
195.372	16.91
195.597	-6.42
195.821	-6.79
196.046	-25.67
196.271	11.91
196.495	20.06
196.72	13.95
196.944	-18.82
197.169	16.91
197.393	-0.12
197.618	-6.97
197.842	0.06
198.067	-17.16
198.291	15.06
198.516	-9.19
198.74	-2.53
198.964	8.02
199.189	7.47
199.413	2.65
199.637	-15.86
199.862	8.95
200.086	-17.9
200.31	3.21
200.535	-17.34
200.759	14.13
200.983	-18.08
201.207	7.28
201.432	-9.75
201.656	-6.23
201.88	8.58
202.104	-15.3
202.328	-14.01
202.552	17.09
202.777	-20.12
203.001	-2.16
203.225	-16.41
203.449	-6.23
203.673	-14.19
203.897	1.17
204.121	-16.23
204.345	-4.01
204.569	-36.41
204.793	-12.16
205.017	-31.59
205.241	14.32
205.465	-7.34
205.689	5.43
205.912	-18.27
206.136	9.13
206.36	-6.42
206.584	0.43
206.808	-3.09
207.032	3.39
207.255	-11.05
207.479	8.58
207.703	0.8
207.927	-16.6
208.15	-6.05
208.374	-8.64
208.598	-9.01
208.822	5.06
209.045	-24
209.269	-24.93
209.492	-33.82
209.716	-20.67
209.94	5.06
210.163	-18.08
210.387	-19.19
210.61	0.06
210.834	13.02
211.057	-16.04
211.281	-1.79
211.504	18.76
211.728	-24
211.951	8.76
212.175	10.06
212.398	-11.23
212.622	-8.45
212.845	-2.53
213.068	2.84
213.292	-12.71
213.515	-9.38
213.738	13.39
213.962	-11.6
214.185	-0.68
214.408	-32.52
214.631	-28.82
214.855	-20.3
215.078	17.28
215.301	-6.97
215.524	8.39
215.747	-27.71
215.971	6.54
216.194	-2.16
216.417	4.32
216.64	-8.64
216.863	17.65
217.086	-7.9
217.309	1.36
217.532	2.84
217.755	-26.97
217.978	-5.12
218.201	3.58
218.424	-3.09
218.647	-4.57
218.87	4.5
219.093	6.17
219.316	-6.6
219.539	-9.01
219.762	4.5
219.985	2.47
220.207	-19.93
220.43	-11.23
220.653	-11.97
220.876	9.87
221.099	-18.27
221.321	-13.82
221.544	-32.52
221.767	12.84
221.99	-21.04
222.212	18.94
222.435	-27.71
222.658	5.8
222.88	-7.16
223.103	8.95
223.326	2.84
223.548	27.28
223.771	-13.82
223.993	-2.16
224.216	-14.93
224.438	-6.05
224.661	3.21
224.883	-9.01
225.106	-30.11
225.328	-0.86
225.551	-11.05
225.773	28.39
225.996	-15.86
226.218	-8.45
226.44	-19.01
226.663	-4.38
226.885	-2.34
227.108	-6.97
227.33	-22.34
227.552	4.69
227.774	-4.57
227.997	-3.27
228.219	-13.64
228.441	17.09
228.663	-10.86
228.886	30.24
229.108	-8.08
229.33	-2.53
229.552	-9.38
229.774	-8.08
229.996	-12.53
230.219	-9.56
230.441	-23.82
230.663	-21.78
230.885	-13.08
231.107	-0.31
231.329	-25.86
231.551	20.06
231.773	13.95
231.995	-9.01
232.217	-22.34
232.439	5.62
232.661	-13.82
232.883	14.69
233.105	-12.34
233.326	15.06
233.548	-7.9
233.77	-1.97
233.992	17.09
234.214	12.09
234.436	-1.42
234.657	17.09
234.879	-12.53
235.101	3.95
235.323	-1.6
235.544	22.28
235.766	-18.27
235.988	6.54
236.21	-23.26
236.431	0.25
236.653	0.62
236.874	1.36
237.096	-10.86
237.318	-12.34
237.539	-14.75
237.761	6.36
237.982	1.73
238.204	32.64
238.425	-14.75
238.647	2.28
238.868	-21.23
239.09	-5.86
239.311	-10.12
239.533	35.24
239.754	6.91
239.975	11.35
240.197	5.8
240.418	2.28
240.64	-11.05
240.861	14.13
241.082	-8.45
241.304	0.43
241.525	-11.05
241.746	5.06
241.967	-4.38
242.189	-9.56
242.41	-12.34
242.631	-1.23
242.852	-24.75
243.073	13.76
243.294	-22.15
243.516	3.58
243.737	12.84
243.958	0.8
244.179	-7.16
244.4	14.32
244.621	-25.3
244.842	19.69
245.063	7.65
245.284	-4.94
245.505	-30.11
245.726	-4.2
245.947	1.91
246.168	1.91
246.389	-11.79
246.61	3.58
246.831	-5.86
247.052	-8.45
247.272	-8.08
247.493	-20.12
247.714	-5.49
247.935	-9.75
248.156	13.95
248.376	13.21
248.597	-1.6
248.818	0.8
249.039	-42.15
249.259	3.76
249.48	13.95
249.701	-0.49
249.921	-12.9
250.142	22.28
250.363	-13.82
250.583	10.8
250.804	11.72
251.025	23.57
251.245	-16.78
251.466	-1.97
251.686	10.06
251.907	1.54
252.127	-27.52
252.348	-17.53
252.568	-1.42
252.789	-5.31
253.009	-4.01
253.23	-12.71
253.45	-26.97
253.67	23.57
253.891	-20.12
254.111	-6.79
254.331	-6.42
254.552	3.21
254.772	-15.86
254.992	0.99
255.213	-10.68
255.433	8.58
255.653	-11.6
255.873	-5.86
256.093	-14.56
256.314	7.1
256.534	-16.04
256.754	4.32
256.974	-18.45
257.194	5.06
257.414	-3.64
257.634	8.21
257.855	-9.38
258.075	9.13
258.295	2.84
258.515	4.69
258.735	-13.64
258.955	14.32
259.175	11.91
259.395	5.99
259.615	-10.12
259.835	-13.27
260.054	-16.41
260.274	-17.71
260.494	1.17
260.714	-13.27
260.934	-25.3
261.154	2.84
261.374	1.36
261.593	3.02
261.813	-10.68
262.033	-2.53
262.253	-14.19
262.472	3.02
262.692	-16.23
262.912	12.84
263.132	-0.49
263.351	-16.97
263.571	5.8
263.791	-6.6
264.01	8.76
264.23	-8.08
264.449	-34.74
264.669	3.76
264.888	-16.04
265.108	-10.12
265.328	-12.53
265.547	32.09
265.767	-0.49
265.986	8.76
266.205	-10.86
266.425	15.06
266.644	-16.04
266.864	2.1
267.083	-19.01
267.303	24.5
267.522	-25.86
267.741	6.73
267.961	-24.56
268.18	-18.08
268.399	-23.63
268.618	-0.12
268.838	-9.01
269.057	10.61
269.276	-11.05
269.495	-4.57
269.715	-14.93
269.934	3.58
270.153	-8.45
270.372	-11.05
270.591	-14.01
270.81	12.47
271.029	-20.3
271.249	10.43
271.468	-16.23
271.687	-10.68
271.906	-6.6
272.125	-0.49
272.344	-11.6
272.563	12.09
272.782	-2.72
273.001	11.91
273.22	-18.82
273.439	-1.42
273.657	-14.93
273.876	8.02
274.095	-14.93
274.314	5.25
274.533	-12.53
274.752	0.25
274.971	-16.41
275.189	-15.3
275.408	-20.12
275.627	19.87
275.846	-30.67
276.064	-7.34
276.283	-1.23
276.502	18.2
276.72	-6.6
276.939	8.02
277.158	-5.31
277.376	5.43
277.595	-5.49
277.814	-1.97
278.032	2.47
278.251	-14.19
278.469	-11.23
278.688	5.8
278.906	-41.96
279.125	-10.12
279.343	-17.16
279.562	-16.97
279.78	-6.05
279.999	-1.97
280.217	-8.45
280.435	0.8
280.654	4.69
280.872	-7.16
281.091	-14.38
281.309	0.8
281.527	-11.42
281.746	-3.64
281.964	-14.93
282.182	-18.27
282.4	-2.34
282.619	-19.19
282.837	-19.93
283.055	3.58
283.273	-19.56
283.491	8.58
283.71	-19.93
283.928	-13.27
284.146	-11.05
284.364	-9.38
284.582	-6.97
284.8	-22.89
285.018	-16.6
285.236	-10.86
285.454	12.28
285.672	12.09
285.89	-8.08
286.108	3.95
286.326	-4.57
286.544	15.24
286.762	-30.48
286.98	7.65
287.198	-10.49
287.416	9.5
287.634	-6.42
287.851	-0.68
288.069	-13.64
288.287	-9.56
288.505	-3.83
288.723	-5.86
288.94	-27.71
289.158	-0.49
289.376	-14.75
289.594	-16.6
289.811	1.73
290.029	6.91
290.247	-16.97
290.464	-3.46
290.682	-34.93
290.9	-4.57
291.117	-11.79
291.335	-2.16
291.552	-10.68
291.77	5.99
291.987	-15.67
292.205	-7.34
292.422	-8.82
292.64	0.99
292.857	12.47
293.075	-6.42
293.292	-8.64
293.51	-4.75
293.727	-23.63
293.945	16.35
294.162	1.54
294.379	5.25
294.597	-31.78
294.814	7.65
295.031	0.06
295.249	-16.23
295.466	-16.23
295.683	-18.64
295.9	9.87
296.118	-17.53
296.335	-11.6
296.552	38.2
296.769	-3.46
296.986	-4.01
297.204	-14.01
297.421	-9.19
297.638	-18.64
297.855	0.25
298.072	-3.27
298.289	2.84
298.506	-15.3
298.723	-6.42
298.94	-16.6
299.157	-12.16
299.374	-7.71
299.591	-12.71
299.808	-29.19
300.025	9.32
300.242	-16.78
300.459	-2.34
300.676	-26.41
300.893	-11.23
301.109	-1.05
301.326	-15.3
301.543	-24.75
301.76	-14.56
301.977	8.58
302.193	-11.6
302.41	-15.3
302.627	3.21
302.844	-8.45
303.06	-4.01
303.277	-23.26
303.494	-23.08
303.71	-23.08
303.927	3.95
304.144	-21.23
304.36	12.09
304.577	-17.34
304.793	8.58
305.01	-21.41
305.227	2.84
305.443	-10.12
305.66	7.1
305.876	-11.6
306.093	5.25
306.309	-18.27
306.526	8.02
306.742	-23.08
306.958	10.98
307.175	-16.23
307.391	7.65
307.608	-7.9
307.824	12.47
308.04	4.69
308.257	7.65
308.473	-4.57
308.689	7.28
308.905	-24.75
309.122	2.28
309.338	-9.75
309.554	-4.57
309.77	12.09
309.986	19.5
310.203	-16.04
310.419	14.13
310.635	-12.9
310.851	13.95
311.067	14.69
311.283	21.91
311.499	-20.86
311.715	-17.34
311.931	-12.34
312.147	12.65
312.363	-14.38
312.579	31.72
312.795	3.39
313.011	1.91
313.227	-8.08
313.443	-3.64
313.659	-27.89
313.875	5.06
314.091	-18.82
314.307	-12.34
314.523	-7.9
314.738	12.65
314.954	3.39
315.17	-3.09
315.386	-0.12
315.602	8.58
315.817	-24.93
316.033	-6.97
316.249	-21.04
316.465	-1.97
316.68	-18.64
316.896	5.43
317.112	-21.04
317.327	-9.94
317.543	2.28
317.758	3.76
317.974	-36.04
318.19	-19.19
318.405	-0.49
318.621	-7.16
318.836	-11.79
319.052	-31.41
319.267	-1.42
319.483	-15.12
319.698	-30.48
319.914	-4.75
320.129	-37.52
320.344	9.69
320.56	-14.38
320.775	0.62
320.99	-8.82
321.206	5.99
321.421	-34.19
321.636	-23.82
321.852	-32.34
322.067	2.47
322.282	-10.49
322.498	-0.31
322.713	-20.12
322.928	-2.16
323.143	-2.34
323.358	-2.53
323.574	6.36
323.789	-1.97
324.004	-1.23
324.219	23.76
324.434	-1.23
324.649	11.91
324.864	-14.56
325.079	11.72
325.294	-6.97
325.509	-9.56
325.724	-16.23
325.939	9.32
326.154	-3.27
326.369	0.62
326.584	-0.49
326.799	9.69
327.014	-10.68
327.229	-7.53
327.444	-17.71
327.659	-8.64
327.873	-25.3
328.088	-1.23
328.303	0.06
328.518	7.47
328.733	-29.37
328.947	6.36
329.162	7.1
329.377	-12.71
329.591	-15.3
329.806	-6.6
330.021	-19.56
330.235	16.17
330.45	-18.64
330.665	-11.05
330.879	-5.86
331.094	-5.68
331.309	3.58
331.523	5.99
331.738	0.99
331.952	-1.05
332.167	-22.52
332.381	10.61
332.596	-17.34
332.81	-16.41
333.025	-14.56
333.239	-18.64
333.453	-19.56
333.668	-11.79
333.882	-18.08
334.097	7.1
334.311	-10.12
334.525	-14.01
334.74	-18.64
334.954	13.39
335.168	-7.9
335.382	-21.04
335.597	-24.19
335.811	-12.9
336.025	-29
336.239	-9.19
336.453	-19.19
336.668	-5.31
336.882	11.54
337.096	17.09
337.31	-11.05
337.524	5.06
337.738	-16.6
337.952	-6.42
338.166	-33.82
338.38	-4.57
338.594	-18.27
338.808	-22.52
339.022	-11.97
339.236	-4.01
339.45	6.17
339.664	-10.49
339.878	-26.78
340.092	-12.34
340.306	-5.68
340.52	8.39
340.734	-23.45
340.948	-5.31
341.161	-23.63
341.375	-7.34
341.589	-10.68
341.803	-5.12
342.017	-5.68
342.23	-11.97
342.444	-15.12
342.658	-6.79
342.871	-15.12
343.085	0.62
343.299	-7.34
343.512	2.84
343.726	-25.12
343.94	-15.67
344.153	-6.42
344.367	6.36
344.58	-4.94
344.794	2.28
345.008	-14.01
345.221	-10.68
345.435	16.72
345.648	-12.9
345.862	-10.49
346.075	28.39
346.288	-3.09
346.502	-25.86
346.715	-13.08
346.929	-4.2
347.142	-17.71
347.355	-8.45
347.569	-6.05
347.782	1.36
347.995	-5.68
348.209	-0.12
348.422	-16.04
348.635	-9.38
348.848	-2.9
349.062	15.24
349.275	8.95
349.488	-7.9
349.701	-4.38
349.914	1.73
350.128	4.13
350.341	11.91
350.554	-27.52
350.767	11.35
350.98	-13.45
351.193	12.84
351.406	-6.6
351.619	-7.71
351.832	-27.34
352.045	0.25
352.258	-13.64
352.471	-19.01
352.684	-3.09
352.897	2.65
353.11	-6.97
353.323	-16.23
353.536	-11.23
353.748	3.21
353.961	-6.42
354.174	-15.3
354.387	-16.97
354.6	-5.31
354.813	-5.31
355.025	-1.05
355.238	-9.94
355.451	15.8
355.664	-16.41
355.876	-4.75
356.089	-7.16
356.302	12.09
356.514	-8.27
356.727	-15.67
356.94	-36.59
357.152	2.47
357.365	-20.3
357.577	-8.82
357.79	9.87
358.002	-9.75
358.215	-17.53
358.427	5.43
358.64	-26.78
358.852	2.65
359.065	4.32
359.277	-5.12
359.49	-8.08
359.702	-0.31
359.915	5.06
360.127	-3.27
360.339	-23.82
360.552	6.36
360.764	-6.6
360.976	7.47
361.189	-12.34
361.401	23.39
361.613	-0.49
361.825	-8.08
362.038	-1.6
362.25	-4.38
362.462	-14.38
362.674	0.62
362.886	0.99
363.099	-4.01
363.311	-24
363.523	4.32
363.735	-29.19
363.947	-17.53
364.159	-7.71
364.371	-0.49
364.583	-43.44
364.795	3.02
365.007	-9.75
365.219	-5.31
365.431	-3.64
365.643	12.47
365.855	0.99
366.067	2.65
366.279	-17.16
366.491	9.87
366.703	-21.23
366.914	-5.68
367.126	-21.04
367.338	10.43
367.55	-11.23
367.762	-0.68
367.974	10.61
368.185	2.65
368.397	-24
368.609	22.09
368.82	0.25
369.032	-0.86
369.244	-6.23
369.456	-17.71
369.667	-17.34
369.879	5.62
370.09	-18.82
370.302	-1.79
370.514	6.73
370.725	-13.27
370.937	-6.97
371.148	-15.49
371.36	2.47
371.571	-12.53
371.783	-24.56
371.994	-15.3
372.206	-17.34
372.417	-1.42
372.629	8.02
372.84	2.1
373.051	-31.04
373.263	-6.6
373.474	-7.53
373.685	-15.67
373.897	-10.49
374.108	-17.9
374.319	-7.53
374.531	-1.42
374.742	-11.42
374.953	-11.42
375.164	-23.63
375.375	-14.38
375.587	-1.42
375.798	-18.08
376.009	-13.45
376.22	6.36
376.431	-25.3
376.642	-10.31
376.853	-2.9
377.065	2.1
377.276	0.06
377.487	-0.12
377.698	-23.26
377.909	-1.23
378.12	-8.45
378.331	-9.75
378.542	-8.64
378.753	11.54
378.964	0.43
379.174	-24.56
379.385	4.32
379.596	-6.79
379.807	-33.26
380.018	16.72
380.229	-26.23
380.44	-24
380.65	-4.2
380.861	-3.27
381.072	11.35
381.283	-1.6
381.493	5.99
381.704	-9.19
381.915	-28.08
382.126	-3.09
382.336	4.69
382.547	-10.49
382.757	-1.23
382.968	22.46
383.179	-22.89
383.389	27.09
383.6	-15.67
383.81	1.17
384.021	-21.97
384.231	-1.6
384.442	-5.31
384.652	-6.42
384.863	-13.08
385.073	26.72
385.284	-16.78
385.494	-11.42
385.705	-27.52
385.915	-4.38
386.125	-26.6
386.336	11.72
386.546	-10.49
386.756	23.2
386.967	0.25
387.177	2.84
387.387	-16.6
387.598	10.8
387.808	-21.6
388.018	0.25
388.228	-23.63
388.439	18.57
388.649	-23.45
388.859	-0.31
389.069	-1.6
389.279	1.54
389.489	20.8
389.699	-14.56
389.909	-24.37
390.12	-0.86
390.33	-22.71
390.54	13.58
390.75	-26.97
390.96	-8.08
391.17	-9.75
391.38	-9.38
391.59	-25.12
391.799	3.02
392.009	-14.19
392.219	5.06
392.429	-21.78
392.639	4.32
392.849	-20.67
393.059	-7.9
393.269	-10.68
393.478	-6.6
393.688	-19.38
393.898	-2.34
394.108	5.25
394.317	-11.42
394.527	-9.56
394.737	2.1
394.947	-16.23
395.156	-2.72
395.366	-23.45
395.576	8.02
395.785	0.8
395.995	2.47
396.204	-41.41
396.414	6.91
396.624	-17.71
396.833	-14.19
397.043	-19.56
397.252	-21.41
397.462	-6.79
397.671	2.1
397.881	-7.53
398.09	-6.6
398.299	-32.52
398.509	-6.79
398.718	4.13
398.928	12.84
399.137	-19.75
399.346	3.58
399.556	-26.23
399.765	8.39
399.974	-6.97
400.184	-13.08
400.393	-1.6
400.602	8.21
400.811	-25.3
401.021	12.47
401.23	-14.93
401.439	4.69
401.648	-27.15
401.857	-29.19
402.066	3.76
402.276	11.72
402.485	-16.78
402.694	-11.23
402.903	-20.49
403.112	4.5
403.321	-14.01
403.53	2.47
403.739	-29.56
403.948	-11.23
404.157	-29.74
404.366	-13.27
404.575	6.54
404.784	10.98
404.993	-14.01
405.202	0.8
405.411	-15.86
405.619	-12.53
405.828	-9.75
406.037	-21.04
406.246	-16.23
406.455	2.1
406.663	-14.56
406.872	3.76
407.081	-14.19
407.29	-4.2
407.498	-4.38
407.707	-6.05
407.916	-3.83
408.124	-8.45
408.333	-17.71
408.542	-6.79
408.75	-21.41
408.959	2.28
409.168	-27.71
409.376	4.5
409.585	-22.52
409.793	-9.01
410.002	-27.15
410.21	-10.68
410.419	-17.9
410.627	15.24
410.836	-6.23
411.044	-9.94
411.253	-15.67
411.461	3.76
411.669	-3.27
411.878	11.91
412.086	-19.56
412.294	-4.38
412.503	-28.82
412.711	28.2
412.919	5.8
413.128	-7.71
413.336	-22.52
413.544	10.06
413.752	-7.53
413.961	-1.42
414.169	-1.05
414.377	6.54
414.585	7.65
414.793	18.94
415.001	-11.05
415.209	-11.23
415.418	-6.23
415.626	3.58
415.834	-2.72
416.042	-4.01
416.25	-6.23
416.458	2.1
416.666	-9.19
416.874	-12.53
417.082	-15.49
417.29	-7.71
417.498	-25.3
417.706	4.87
417.913	5.25
418.121	-3.83
418.329	-11.6
418.537	-14.75
418.745	-15.49
418.953	-4.75
419.161	-18.27
419.368	-19.56
419.576	2.1
419.784	-2.16
419.992	-11.79
420.199	-3.09
420.407	-15.86
420.615	8.58
420.822	-11.97
421.03	8.58
421.238	-12.16
421.445	-1.79
421.653	7.65
421.861	22.65
422.068	-4.2
422.276	15.98
422.483	-19.19
422.691	13.76
422.898	-27.52
423.106	9.32
423.313	-21.23
423.521	-13.45
423.728	-11.97
423.936	29.31
424.143	-11.6
424.35	20.98
424.558	-27.71
424.765	5.62
424.973	6.73
425.18	15.61
425.387	5.25
425.594	14.13
425.802	1.54
426.009	19.13
426.216	3.21
426.424	22.28
426.631	1.36
426.838	8.39
427.045	8.95
427.252	12.84
427.459	16.91
427.667	30.05
427.874	-9.38
428.081	23.39
428.288	15.43
428.495	42.83
428.702	24.5
428.909	26.35
429.116	34.87
429.323	26.53
429.53	50.6
429.737	27.83
429.944	62.63
430.151	58.93
430.358	62.63
430.565	66.52
430.772	97.62
430.979	97.07
431.185	92.99
431.392	84.11
431.599	142.98
431.806	143.35
432.013	159.27
432.219	174.08
432.426	191.85
432.633	206.85
432.84	245.72
433.046	210.36
433.253	325.88
433.46	292.38
433.666	376.05
433.873	382.72
434.08	463.43
434.286	529.15
434.493	681.88
434.7	589.32
434.906	739.46
435.113	754.45
435.319	978.45
435.526	941.61
435.732	1213.56
435.939	1036.21
436.145	1449.97
436.352	1350.37
436.558	1717.66
436.765	1613.25
436.971	2026.45
437.177	1931.85
437.384	2420.21
437.59	2202.32
437.796	2579.42
438.003	2547.03
438.209	2989.66
438.415	2941.9
438.622	3436
438.828	3418.04
439.034	3782.19
439.24	3705.55
439.447	4290.17
439.653	4160.21
439.859	4822.97
440.065	4520.1
440.271	5169.89
440.477	5018.83
440.683	5540.89
440.89	5651.41
441.096	6382.28
441.302	6105.52
441.508	6683.85
441.714	6578.52
441.92	7257.56
442.126	7091.13
442.332	7839.41
442.538	7734.07
442.744	8242.8
442.95	8367.39
443.156	8677.29
443.361	8764.3
443.567	9356.52
443.773	9160.1
443.979	9816.74
444.185	9710.29
444.391	10260.86
444.596	10213.84
444.802	10743.67
445.008	10631.11
445.214	11325.33
445.42	11094.85
445.625	11877.94
445.831	11701.88
446.037	12374.44
446.242	12228.75
446.448	12357.78
446.654	12392.4
446.859	12692.86
447.065	12633.06
447.27	12999.06
447.476	12735.25
447.682	13281.19
447.887	13297.11
448.093	13757.34
448.298	13124.02
448.504	13629.6
448.709	13363.39
448.915	13719.75
449.12	13123.09
449.325	13706.06
449.531	13605.35
449.736	13470.58
449.942	13317.11
450.147	13505.93
450.352	13284.34
450.558	13049.23
450.763	12790.24
450.968	13086.07
451.174	12892.06
451.379	12561.79
451.584	12078.24
451.789	12487
451.995	12046.03
452.2	11988.27
452.405	11765.56
452.61	11582.84
452.815	11528.79
453.02	11207.59
453.226	10846.97
453.431	10931.02
453.636	10555.58
453.841	10228.83
454.046	10019.46
454.251	10134.05
454.456	9533.13
454.661	9556.08
454.866	9179.35
455.071	9064.76
455.276	8784.29
455.481	8670.44
455.686	8274.64
455.891	8560.66
456.095	7929.01
456.3	8096.74
456.505	7557.65
456.71	7747.96
456.915	7192.77
457.12	7237.75
457.324	6697.55
457.529	6984.87
457.734	6368.58
457.939	6728.1
458.144	6237.7
458.348	6443
458.553	6035.17
458.758	6069.79
458.962	5875.96
459.167	5952.05
459.372	5454.8
459.576	5857.08
459.781	5382.6
459.985	5476.28
460.19	5168.41
460.394	5268.38
460.599	5037.9
460.803	5056.04
461.008	4775.94
461.212	4887.76
461.417	4634.32
461.621	4715.22
461.826	4373.48
462.03	4772.8
462.235	4299.99
462.439	4603.22
462.643	4187.98
462.848	4422.72
463.052	4233.71
463.256	4447.35
463.461	3919.74
463.665	4242.23
463.869	3952.5
464.074	4155.77
464.278	3762.56
464.482	3963.24
464.686	3688.88
464.89	3953.8
465.095	3647.05
465.299	3806.81
465.503	3389.35
465.707	3653.52
465.911	3336.4
466.115	3606.32
466.319	3256.8
466.523	3440.81
466.727	3143.32
466.931	3314.37
467.135	2928.2
467.339	3098.15
467.543	2951.71
467.747	3062.6
467.951	2857.11
468.155	2935.42
468.359	2758.63
468.563	2932.27
468.767	2482.79
468.971	2658.84
469.175	2504.82
469.379	2594.97
469.582	2331.17
469.786	2420.59
469.99	2212.87
470.194	2356.53
470.397	2035.89
470.601	2100.5
