Data from FLMT087451__26__14-25-09-623.txt Node

Date: Tue Jun 04 14:25:09 JST 2024
User: power
Spectrometer: FLMT08745
Trigger mode: 0
Integration Time (sec): 1.000000E-1
Scans to average: 11
Electric dark correction enabled: true
Nonlinearity correction enabled: false
Boxcar width: 0
XAxis mode: Wavelengths
Number of Pixels in Spectrum: 3648
>>>>>Begin Spectral Data<<<<<
194.923	-159.83
195.148	-159.83
195.372	-159.83
195.597	-190
195.821	-175.01
196.046	25.12
196.271	-41.72
196.495	-33.2
196.72	15.3
196.944	-22.28
197.169	-1.36
197.393	47.7
197.618	29.37
197.842	15.49
198.067	5.86
198.291	-72.82
198.516	32.52
198.74	-53.93
198.964	72.51
199.189	61.03
199.413	76.95
199.637	62.51
199.862	30.85
200.086	61.22
200.31	157.3
200.535	23.45
200.759	142.86
200.983	9.94
201.207	15.12
201.432	25.3
201.656	108.42
201.88	16.23
202.104	27.15
202.328	75.47
202.552	73.99
202.777	52.51
203.001	78.25
203.225	11.6
203.449	-46.53
203.673	55.11
203.897	52.14
204.121	32.71
204.345	88.06
204.569	11.97
204.793	46.96
205.017	50.29
205.241	60.84
205.465	16.04
205.689	32.52
205.912	36.78
206.136	-12.28
206.36	34
206.584	70.84
206.808	-1.73
207.032	84.54
207.255	80.1
207.479	100.09
207.703	33.63
207.927	48.81
208.15	-1.17
208.374	36.59
208.598	15.49
208.822	54.37
209.045	42.33
209.269	49.37
209.492	146.93
209.716	143.23
209.94	63.07
210.163	107.87
210.387	93.61
210.61	88.61
210.834	33.82
211.057	62.88
211.281	13.45
211.504	23.08
211.728	39.19
211.951	146.19
212.175	100.09
212.398	40.48
212.622	42.89
212.845	155.44
213.068	26.97
213.292	65.66
213.515	14.19
213.738	39.74
213.962	30.3
214.185	11.79
214.408	67.88
214.631	85.47
214.855	63.81
215.078	31.78
215.301	74.91
215.524	37.89
215.747	79.36
215.971	36.78
216.194	35.3
216.417	73.8
216.64	86.02
216.863	422.4
217.086	56.77
217.309	29.93
217.532	93.8
217.755	15.49
217.978	73.25
218.201	141.74
218.424	113.24
218.647	22.89
218.87	16.23
219.093	75.1
219.316	88.61
219.539	59.36
219.762	44.37
219.985	71.4
220.207	-9.69
220.43	79.73
220.653	88.06
220.876	56.77
221.099	137.12
221.321	45.29
221.544	56.4
221.767	100.28
221.99	36.04
222.212	71.77
222.435	75.84
222.658	108.42
222.88	14.19
223.103	146.93
223.326	6.42
223.548	62.33
223.771	47.89
223.993	43.81
224.216	56.22
224.438	68.81
224.661	54.92
224.883	98.43
225.106	146.56
225.328	50.66
225.551	86.76
225.773	49.55
225.996	46.03
226.218	60.29
226.44	74.91
226.663	72.88
226.885	39
227.108	66.21
227.33	90.46
227.552	65.1
227.774	52.88
227.997	77.51
228.219	54.74
228.441	106.02
228.663	143.23
228.886	49.37
229.108	56.22
229.33	54
229.552	10.49
229.774	99.72
229.996	60.47
230.219	120.64
230.441	52.51
230.663	95.65
230.885	38.07
231.107	86.95
231.329	93.61
231.551	111.75
231.773	52.14
231.995	81.39
232.217	65.47
232.439	33.63
232.661	67.14
232.883	67.14
233.105	54.18
233.326	25.86
233.548	108.79
233.77	49.55
233.992	128.42
234.214	34.19
234.436	20.49
234.657	89.54
234.879	160.26
235.101	36.22
235.323	73.62
235.544	67.14
235.766	134.15
235.988	117.12
236.21	110.64
236.431	128.6
236.653	103.42
236.874	139.34
237.096	70.84
237.318	17.53
237.539	82.5
237.761	83.62
237.982	71.03
238.204	152.85
238.425	49.92
238.647	98.06
238.868	38.26
239.09	124.34
239.311	14.38
239.533	65.66
239.754	128.05
239.975	57.7
240.197	72.32
240.418	89.54
240.64	75.47
240.861	94.35
241.082	82.5
241.304	94.91
241.525	53.07
241.746	53.62
241.967	6.79
242.189	66.77
242.41	118.05
242.631	202.1
242.852	51.4
243.073	137.86
243.294	50.11
243.516	94.17
243.737	102.5
243.958	18.27
244.179	76.4
244.4	183.77
244.621	59.36
244.842	93.43
245.063	139.71
245.284	92.32
245.505	95.65
245.726	98.43
245.947	123.79
246.168	39.19
246.389	56.96
246.61	138.23
246.831	152.3
247.052	84.91
247.272	95.65
247.493	69.55
247.714	142.12
247.935	19.56
248.156	118.42
248.376	138.04
248.597	138.04
248.818	72.69
249.039	86.76
249.259	90.65
249.48	40.85
249.701	113.05
249.921	69.36
250.142	63.81
250.363	116.01
250.583	91.76
250.804	104.16
251.025	152.11
251.245	115.27
251.466	134.9
251.686	102.13
251.907	58.44
252.127	117.12
252.348	102.13
252.568	65.47
252.789	130.27
253.009	119.71
253.23	172.29
253.45	110.83
253.67	116.94
253.891	58.07
254.111	158.96
254.331	96.76
254.552	119.71
254.772	108.42
254.992	87.13
255.213	56.4
255.433	116.57
255.653	78.62
255.873	101.02
256.093	118.05
256.314	59.36
256.534	53.44
256.754	184.32
256.974	78.99
257.194	93.43
257.414	82.69
257.634	106.57
257.855	55.11
258.075	40.67
258.295	63.62
258.515	85.47
258.735	118.42
258.955	88.61
259.175	80.65
259.395	86.95
259.615	138.78
259.835	121.57
260.054	93.43
260.274	130.82
260.494	140.82
260.714	189.51
260.934	99.72
261.154	109.72
261.374	81.76
261.593	94.17
261.813	34.56
262.033	73.43
262.253	67.32
262.472	101.76
262.692	88.06
262.912	126.19
263.132	114.9
263.351	124.16
263.571	171.55
263.791	95.83
264.01	174.51
264.23	120.09
264.449	88.43
264.669	174.7
264.888	161.37
265.108	91.02
265.328	165.26
265.547	85.47
265.767	118.6
265.986	14.56
266.205	113.79
266.425	95.65
266.644	141.93
266.864	33.63
267.083	155.07
267.303	93.24
267.522	83.99
267.741	86.76
267.961	121.75
268.18	48.81
268.399	125.08
268.618	109.53
268.838	127.49
269.057	77.14
269.276	87.13
269.495	109.9
269.715	113.24
269.934	54.92
270.153	135.82
270.372	30.11
270.591	143.23
270.81	136.75
271.029	120.27
271.249	93.8
271.468	46.03
271.687	138.78
271.906	96.57
272.125	168.4
272.344	125.64
272.563	96.57
272.782	80.1
273.001	88.24
273.22	93.61
273.439	117.12
273.657	118.79
273.876	150.26
274.095	18.82
274.314	143.97
274.533	145.45
274.752	58.99
274.971	135.64
275.189	181.73
275.408	127.31
275.627	104.72
275.846	151.37
276.064	85.47
276.283	54.18
276.502	117.49
276.72	74.73
276.939	80.65
277.158	70.29
277.376	67.51
277.595	125.08
277.814	54.18
278.032	117.12
278.251	76.77
278.469	68.43
278.688	90.84
278.906	183.95
279.125	82.69
279.343	62.7
279.562	100.28
279.78	41.04
279.999	81.58
280.217	105.83
280.435	116.94
280.654	45.29
280.872	112.68
281.091	106.94
281.309	89.17
281.527	134.52
281.746	100.28
281.964	61.03
282.182	96.57
282.4	86.76
282.619	179.51
282.837	135.64
283.055	70.29
283.273	48.07
283.491	112.31
283.71	108.05
283.928	96.2
284.146	80.1
284.364	90.84
284.582	80.28
284.8	113.79
285.018	77.88
285.236	18.64
285.454	146
285.672	105.83
285.89	77.51
286.108	36.59
286.326	83.06
286.544	108.61
286.762	47.52
286.98	18.82
287.198	151.37
287.416	221.53
287.634	151.37
287.851	92.5
288.069	93.06
288.287	104.53
288.505	46.03
288.723	107.5
288.94	93.43
289.158	82.13
289.376	145.26
289.594	81.58
289.811	48.26
290.029	88.06
290.247	162.29
290.464	109.9
290.682	27.89
290.9	118.05
291.117	80.28
291.335	80.84
291.552	36.22
291.77	100.65
291.987	54.74
292.205	84.54
292.422	95.65
292.64	143.41
292.857	52.33
293.075	114.35
293.292	82.5
293.51	121.94
293.727	75.65
293.945	108.42
294.162	80.47
294.379	82.32
294.597	105.83
294.814	91.02
295.031	86.76
295.249	134.34
295.466	86.58
295.683	101.76
295.9	90.09
296.118	84.91
296.335	50.85
296.552	131.19
296.769	146.93
296.986	125.08
297.204	107.31
297.421	63.62
297.638	87.87
297.855	123.97
298.072	88.8
298.289	110.46
298.506	45.48
298.723	126.38
298.94	114.9
299.157	92.69
299.374	77.14
299.591	141.37
299.808	36.04
300.025	30.85
300.242	51.22
300.459	105.09
300.676	55.48
300.893	66.21
301.109	106.2
301.326	151.56
301.543	121.75
301.76	79.54
301.977	49.18
302.193	77.51
302.41	125.08
302.627	38.26
302.844	39.37
303.06	69.36
303.277	66.03
303.494	117.31
303.71	96.39
303.927	128.79
304.144	80.47
304.36	123.97
304.577	108.24
304.793	137.86
305.01	102.87
305.227	108.05
305.443	137.3
305.66	211.35
305.876	77.88
306.093	92.13
306.309	141.93
306.526	41.96
306.742	129.9
306.958	138.41
307.175	95.28
307.391	85.47
307.608	108.24
307.824	140.63
308.04	124.9
308.257	103.24
308.473	205.61
308.689	95.09
308.905	151.74
309.122	85.84
309.338	57.7
309.554	107.5
309.77	97.87
309.986	128.42
310.203	32.52
310.419	102.31
310.635	102.5
310.851	48.26
311.067	123.97
311.283	118.23
311.499	40.85
311.715	90.65
311.931	135.64
312.147	126.38
312.363	34.74
312.579	129.9
312.795	110.27
313.011	70.66
313.227	68.06
313.443	143.6
313.659	117.86
313.875	59.92
314.091	128.6
314.307	118.42
314.523	73.25
314.738	94.91
314.954	123.23
315.17	66.77
315.386	95.65
315.602	75.1
315.817	52.51
316.033	82.13
316.249	83.43
316.465	104.53
316.68	61.59
316.896	78.25
317.112	39
317.327	50.29
317.543	196.17
317.758	71.21
317.974	101.57
318.19	104.16
318.405	62.88
318.621	97.5
318.836	59.55
319.052	39.56
319.267	114.16
319.483	46.78
319.698	101.57
319.914	55.85
320.129	86.39
320.344	116.38
320.56	111.38
320.775	161
320.99	81.02
321.206	85.84
321.421	104.35
321.636	97.13
321.852	93.06
322.067	71.03
322.282	51.77
322.498	56.03
322.713	103.98
322.928	126.93
323.143	72.88
323.358	84.91
323.574	128.05
323.789	56.77
324.004	46.78
324.219	78.06
324.434	131.01
324.649	80.65
324.864	114.9
325.079	71.58
325.294	60.84
325.509	51.03
325.724	131.75
325.939	74.17
326.154	89.72
326.369	216.54
326.584	78.8
326.799	78.25
327.014	115.83
327.229	63.44
327.444	87.13
327.659	53.81
327.873	85.47
328.088	115.83
328.303	44.92
328.518	61.03
328.733	33.08
328.947	78.99
329.162	50.29
329.377	93.24
329.591	111.75
329.806	86.58
330.021	70.66
330.235	172.85
330.45	120.27
330.665	54.92
330.879	78.06
331.094	134.52
331.309	104.72
331.523	128.23
331.738	133.04
331.952	146.56
332.167	188.21
332.381	149.89
332.596	193.95
332.81	230.61
333.025	284.48
333.239	405.55
333.453	410.92
333.668	484.04
333.882	500.7
334.097	425.73
334.311	373.89
334.525	305.58
334.74	220.79
334.954	141.93
335.168	192.65
335.382	152.11
335.597	112.31
335.811	68.81
336.025	102.87
336.239	49.55
336.453	134.9
336.668	97.5
336.882	52.7
337.096	139.15
337.31	96.39
337.524	152.11
337.738	103.98
337.952	113.61
338.166	84.54
338.38	104.16
338.594	152.67
338.808	100.46
339.022	205.43
339.236	121.57
339.45	125.82
339.664	208.02
339.878	99.35
340.092	73.62
340.306	53.81
340.52	148.04
340.734	143.78
340.948	128.05
341.161	147.67
341.375	164.33
341.589	152.85
341.803	154.33
342.017	161.55
342.23	118.42
342.444	220.79
342.658	163.59
342.871	183.95
343.085	125.82
343.299	96.2
343.512	133.78
343.726	110.64
343.94	174.51
344.153	159.89
344.367	191.17
344.58	105.65
344.794	121.2
345.008	87.69
345.221	100.28
345.435	149.52
345.648	118.05
345.862	128.97
346.075	129.9
346.288	122.31
346.502	214.87
346.715	177.66
346.929	75.28
347.142	203.95
347.355	166.18
347.569	190.06
347.782	220.61
347.995	186.36
348.209	194.32
348.422	136.01
348.635	246.53
348.848	233.2
349.062	217.28
349.275	351.49
349.488	315.76
349.701	380.93
349.914	270.96
350.128	379.82
350.341	407.03
350.554	308.73
350.767	329.65
350.98	367.23
351.193	295.58
351.406	260.04
351.619	240.05
351.832	243.56
352.045	214.87
352.258	170.44
352.471	260.04
352.684	242.08
352.897	319.84
353.11	348.72
353.323	514.96
353.536	479.6
353.748	736
353.961	770.06
354.174	884.29
354.387	926.86
354.6	864.48
354.813	762.47
355.025	651.58
355.238	505.89
355.451	373.52
355.664	300.21
355.876	294.66
356.089	243.01
356.302	202.1
356.514	186.18
356.727	171.18
356.94	142.3
357.152	154.7
357.365	141
357.577	125.82
357.79	110.64
358.002	79.73
358.215	108.42
358.427	140.82
358.64	191.54
358.852	100.09
359.065	108.79
359.277	128.97
359.49	194.88
359.702	198.02
359.915	136.56
360.127	128.42
360.339	138.97
360.552	133.23
360.764	137.3
360.976	193.4
361.189	100.83
361.401	193.4
361.613	193.95
361.825	86.76
362.038	170.99
362.25	211.72
362.462	141.19
362.674	172.85
362.886	250.78
363.099	200.99
363.311	255.6
363.523	239.12
363.735	262.08
363.947	228.2
364.159	267.08
364.371	250.78
364.583	207.28
364.795	206.91
365.007	236.9
365.219	206.72
365.431	198.21
365.643	181.18
365.855	133.6
366.067	139.89
366.279	172.11
366.491	175.25
366.703	183.58
366.914	212.28
367.126	206.35
367.338	269.67
367.55	273.18
367.762	250.23
367.974	221.72
368.185	163.22
368.397	226.35
368.609	213.76
368.82	173.22
369.032	179.14
369.244	112.87
369.456	213.57
369.667	152.48
369.879	203.58
370.09	135.45
370.302	199.5
370.514	242.45
370.725	242.45
370.937	177.66
371.148	220.61
371.36	289.29
371.571	310.58
371.783	330.39
371.994	404.62
372.206	399.81
372.417	460.53
372.629	348.72
372.84	280.77
373.051	221.72
373.263	280.22
373.474	205.61
373.685	158.41
373.897	153.22
374.108	174.88
374.319	119.34
374.531	161.92
374.742	177.47
374.953	173.77
375.164	133.04
375.375	173.03
375.587	146.74
375.798	226.72
376.009	278.37
376.22	341.5
376.431	293.92
376.642	351.31
376.853	457.38
377.065	470.53
377.276	426.65
377.487	402.4
377.698	337.05
377.909	332.24
378.12	307.43
378.331	229.31
378.542	168.22
378.753	165.26
378.964	155.07
379.174	192.1
379.385	155.26
379.596	91.21
379.807	173.03
380.018	102.31
380.229	191.91
380.44	230.42
380.65	121.75
380.861	183.77
381.072	172.85
381.283	184.88
381.493	235.6
381.704	210.06
381.915	175.07
382.126	111.75
382.336	223.94
382.547	237.83
382.757	179.51
382.968	127.49
383.179	163.77
383.389	221.53
383.6	212.09
383.81	173.96
384.021	281.14
384.231	306.88
384.442	180.25
384.652	215.61
384.863	291.51
385.073	262.63
385.284	315.02
385.494	287.44
385.705	273.55
385.915	308.73
386.125	314.1
386.336	355.38
386.546	346.49
386.756	480.53
386.967	435.35
387.177	549.39
387.387	594.38
387.598	621.59
387.808	722.86
388.018	804.5
388.228	773.4
388.439	799.68
388.649	616.59
388.859	517.37
389.069	496.63
389.279	351.86
389.489	320.95
389.699	240.6
389.909	226.16
390.12	174.51
390.33	216.54
390.54	218.57
390.75	250.04
390.96	197.1
391.17	181.18
391.38	175.44
391.59	144.89
391.799	160.81
392.009	223.94
392.219	214.5
392.429	147.67
392.639	192.84
392.849	174.51
393.059	228.75
393.269	238.38
393.478	216.91
393.688	262.08
393.898	286.7
394.108	163.96
394.317	200.99
394.527	173.96
394.737	215.05
394.947	201.54
395.156	155.07
395.366	208.21
395.576	261.71
395.785	227.09
395.995	242.45
396.204	259.3
396.414	178.96
396.624	220.42
396.833	186.36
397.043	205.8
397.252	160.44
397.462	281.14
397.671	168.59
397.881	104.9
398.09	146.19
398.299	93.06
398.509	138.78
398.718	128.23
398.928	133.04
399.137	163.59
399.346	140.08
399.556	145.45
399.765	85.28
399.974	89.54
400.184	165.44
400.393	174.33
400.602	161.74
400.811	203.58
401.021	156.74
401.23	214.31
401.439	196.73
401.648	205.06
401.857	173.4
402.066	171.92
402.276	213.2
402.485	256.34
402.694	215.43
402.903	225.98
403.112	175.44
403.321	235.42
403.53	197.1
403.739	133.78
403.948	149.71
404.157	198.02
404.366	154.33
404.575	152.11
404.784	213.39
404.993	192.1
405.202	255.6
405.411	225.24
405.619	138.04
405.828	182.29
406.037	196.17
406.246	165.07
406.455	131.38
406.663	188.95
406.872	149.71
407.081	171.55
407.29	187.29
407.498	168.4
407.707	155.44
407.916	164.52
408.124	220.42
408.333	262.82
408.542	127.31
408.75	190.62
408.959	141.74
409.168	164.33
409.376	133.6
409.585	158.59
409.793	269.48
410.002	161.92
410.21	195.25
410.419	179.7
410.627	156.93
410.836	153.41
411.044	141.37
411.253	142.12
411.461	145.45
411.669	179.14
411.878	176.92
412.086	79.54
412.294	157.67
412.503	69.55
412.711	146.19
412.919	158.96
413.128	125.08
413.336	70.66
413.544	168.22
413.752	164.89
413.961	179.33
414.169	129.9
414.377	184.14
414.585	241.34
414.793	130.82
415.001	99.91
415.209	145.82
415.418	132.3
415.626	238.75
415.834	157.11
416.042	191.73
416.25	157.11
416.458	168.96
416.666	223.76
416.874	264.85
417.082	278.55
417.29	216.72
417.498	196.17
417.706	191.54
417.913	166.74
418.121	172.66
418.329	259.49
418.537	157.3
418.745	101.39
418.953	181.92
419.161	211.35
419.368	169.88
419.576	99.91
419.784	143.04
419.992	127.86
420.199	215.24
420.407	141
420.615	205.8
420.822	189.51
421.03	147.11
421.238	191.73
421.445	113.79
421.653	104.9
421.861	188.95
422.068	142.86
422.276	217.09
422.483	153.41
422.691	199.13
422.898	336.13
423.106	191.36
423.313	188.77
423.521	289.11
423.728	293.73
423.936	299.29
424.143	328.35
424.35	388.33
424.558	336.87
424.765	330.2
424.973	282.81
425.18	227.64
425.387	259.11
425.594	226.53
425.802	290.03
426.009	172.11
426.216	150.82
426.424	158.04
426.631	185.8
426.838	132.3
427.045	123.42
427.252	158.59
427.459	205.43
427.667	182.84
427.874	117.49
428.081	166.74
428.288	170.99
428.495	123.23
428.702	210.8
428.909	141.37
429.116	81.39
429.323	167.11
429.53	156.37
429.737	106.39
429.944	176.36
430.151	144.89
430.358	208.02
430.565	170.81
430.772	91.76
430.979	144.34
431.185	123.42
431.392	133.04
431.599	179.14
431.806	137.67
432.013	164.33
432.219	145.08
432.426	185.25
432.633	130.27
432.84	140.82
433.046	148.41
433.253	153.41
433.46	172.29
433.666	111.57
433.873	169.7
434.08	197.65
434.286	162.48
434.493	214.87
434.7	136.75
434.906	206.17
435.113	153.78
435.319	247.27
435.526	126.01
435.732	217.46
435.939	185.8
436.145	104.9
436.352	179.51
436.558	143.97
436.765	234.86
436.971	137.67
437.177	154.15
437.384	69.55
437.59	112.12
437.796	159.15
438.003	138.23
438.209	223.2
438.415	154.89
438.622	177.29
438.828	203.58
439.034	176.73
439.24	131.01
439.447	156.74
439.653	128.23
439.859	98.43
440.065	151.74
440.271	97.87
440.477	145.26
440.683	112.68
440.89	104.35
441.096	204.13
441.302	176.73
441.508	203.76
441.714	92.87
441.92	110.64
442.126	106.02
442.332	159.89
442.538	133.23
442.744	136.75
442.95	170.99
443.156	139.15
443.361	191.54
443.567	113.42
443.773	170.81
443.979	193.21
444.185	107.13
444.391	101.2
444.596	122.12
444.802	113.42
445.008	279.48
445.214	119.9
445.42	215.43
445.625	130.82
445.831	194.51
446.037	226.16
446.242	230.24
446.448	288.36
446.654	389.63
446.859	436.65
447.065	462.2
447.27	540.32
447.476	451.83
447.682	334.09
447.887	366.3
448.093	353.16
448.298	259.49
448.504	265.04
448.709	275.59
448.915	383.33
449.12	355.94
449.325	425.54
449.531	413.14
449.736	395.92
449.942	322.06
450.147	305.77
450.352	306.88
450.558	263.37
450.763	254.3
450.968	315.02
451.174	167.66
451.379	162.11
451.584	189.51
451.789	156.74
451.995	190.8
452.2	107.5
452.405	90.09
452.61	129.53
452.815	174.33
453.02	122.49
453.226	129.16
453.431	193.21
453.636	138.78
453.841	160.07
454.046	167.66
454.251	212.65
454.456	275.04
454.661	494.04
454.866	633.07
455.071	781.17
455.276	839.86
455.481	822.08
455.686	691.57
455.891	550.32
456.095	507.74
456.3	443.5
456.505	347.98
456.71	403.51
456.915	292.62
457.12	265.04
457.324	182.47
457.529	200.61
457.734	224.13
457.939	154.52
458.144	155.26
458.348	170.99
458.553	419.25
458.758	791.17
458.962	1250.28
459.167	1556.48
459.372	1747.16
459.576	1876.56
459.781	1554.81
459.985	1255.83
460.19	1111.62
460.394	937.23
460.599	868.36
460.803	650.66
461.008	564.94
461.212	409.07
461.417	360.19
461.621	260.78
461.826	245.97
462.03	138.78
462.235	183.21
462.439	208.02
462.643	328.72
462.848	289.48
463.052	329.28
463.256	943.71
463.461	2175.73
463.665	3476.61
463.869	4449.44
464.074	4999.45
464.278	5123.49
464.482	4474.62
464.686	3452.72
464.89	3117.28
465.095	2791.64
465.299	2232
465.503	1886.37
465.707	1579.8
465.911	1457.99
466.115	1568.33
466.319	1592.76
466.523	1628.12
