Data from FLMT087451__4__13-45-39-183.txt Node

Date: Tue Jun 04 13:45:39 JST 2024
User: power
Spectrometer: FLMT08745
Trigger mode: 0
Integration Time (sec): 3.600000E-2
Scans to average: 11
Electric dark correction enabled: true
Nonlinearity correction enabled: false
Boxcar width: 0
XAxis mode: Wavelengths
Number of Pixels in Spectrum: 3648
>>>>>Begin Spectral Data<<<<<
194.923	-63.67
195.148	-63.67
195.372	-63.67
195.597	-48.49
195.821	-59.78
196.046	16.49
196.271	-9.8
196.495	-19.24
196.72	23.71
196.944	-20.72
197.169	-1.1
197.393	4.83
197.618	14.46
197.842	-9.8
198.067	18.71
198.291	-34.79
198.516	17.23
198.74	-42.56
198.964	47.41
199.189	32.23
199.413	67.59
199.637	47.78
199.862	49.26
200.086	20.19
200.31	67.77
200.535	40.37
200.759	53.52
200.983	10.94
201.207	34.63
201.432	27.97
201.656	63.14
201.88	17.6
202.104	45.19
202.328	61.85
202.552	47.78
202.777	42.41
203.001	55
203.225	38.52
203.449	14.09
203.673	33.89
203.897	45.56
204.121	19.08
204.345	55.37
204.569	1.5
204.793	18.16
205.017	19.27
205.241	32.23
205.465	18.9
205.689	44.45
205.912	23.9
206.136	17.97
206.36	32.97
206.584	43.33
206.808	20.75
207.032	46.11
207.255	15.38
207.479	83.14
207.703	21.3
207.927	19.45
208.15	20.38
208.374	63.51
208.598	22.6
208.822	50.74
209.045	-3.13
209.269	42.96
209.492	75.18
209.716	34.26
209.94	33.15
210.163	45.93
210.387	36.3
210.61	55.18
210.834	-18.68
211.057	27.6
211.281	11.49
211.504	32.04
211.728	23.53
211.951	74.99
212.175	57.22
212.398	40.19
212.622	13.71
212.845	80.73
213.068	12.42
213.292	36.67
213.515	8.35
213.738	38.52
213.962	35.56
214.185	32.23
214.408	42.96
214.631	72.96
214.855	33.89
215.078	15.94
215.301	24.27
215.524	31.67
215.747	31.67
215.971	43.52
216.194	8.9
216.417	33.34
216.64	14.83
216.863	149.04
217.086	43.71
217.309	28.9
217.532	1.68
217.755	26.12
217.978	19.64
218.201	73.33
218.424	38.34
218.647	10.94
218.87	20.01
219.093	51.3
219.316	35.93
219.539	20.38
219.762	24.27
219.985	38.52
220.207	-2.76
220.43	10.01
220.653	21.3
220.876	35.56
221.099	53.89
221.321	27.23
221.544	18.71
221.767	42.41
221.99	21.12
222.212	39.63
222.435	21.12
222.658	49.44
222.88	7.05
223.103	47.96
223.326	5.2
223.548	52.41
223.771	22.6
223.993	35.56
224.216	36.86
224.438	15.2
224.661	27.41
224.883	39.63
225.106	63.88
225.328	28.34
225.551	45.74
225.773	11.31
225.996	22.42
226.218	30.38
226.44	54.26
226.663	42.22
226.885	22.05
227.108	30.19
227.33	43.52
227.552	16.49
227.774	19.64
227.997	35
228.219	28.34
228.441	56.85
228.663	69.07
228.886	38.52
229.108	27.04
229.33	22.23
229.552	5.57
229.774	28.34
229.996	27.23
230.219	59.81
230.441	22.05
230.663	64.07
230.885	-3.32
231.107	25.01
231.329	11.49
231.551	53.52
231.773	-19.05
231.995	33.34
232.217	35.37
232.439	30.01
232.661	6.87
232.883	41.85
233.105	5.94
233.326	11.68
233.548	25.93
233.77	15.38
233.992	30.93
234.214	17.97
234.436	23.71
234.657	12.42
234.879	54.63
235.101	25.38
235.323	14.46
235.544	22.79
235.766	17.23
235.988	32.23
236.21	25.19
236.431	23.9
236.653	37.04
236.874	46.67
237.096	23.34
237.318	-1.65
237.539	32.78
237.761	47.22
237.982	-1.47
238.204	75.92
238.425	-0.73
238.647	29.82
238.868	-5.17
239.09	19.82
239.311	0.2
239.533	37.41
239.754	30.75
239.975	16.86
240.197	8.72
240.418	25.93
240.64	13.34
240.861	45.56
241.082	6.87
241.304	21.12
241.525	10.01
241.746	13.34
241.967	-26.09
242.189	32.78
242.41	13.53
242.631	58.7
242.852	6.49
243.073	52.78
243.294	13.9
243.516	26.86
243.737	16.31
243.958	5.38
244.179	27.41
244.4	53.7
244.621	8.72
244.842	38.89
245.063	26.86
245.284	38.52
245.505	17.97
245.726	37.6
245.947	29.45
246.168	5.57
246.389	-2.95
246.61	41.3
246.831	32.04
247.052	18.34
247.272	44.63
247.493	12.97
247.714	38.52
247.935	8.53
248.156	20.38
248.376	34.45
248.597	35
248.818	10.01
249.039	21.68
249.259	40
249.48	7.79
249.701	25.56
249.921	5.01
250.142	-19.42
250.363	27.23
250.583	32.23
250.804	35
251.025	45.74
251.245	27.23
251.466	29.64
251.686	19.45
251.907	9.83
252.127	43.33
252.348	10.94
252.568	-3.87
252.789	17.6
253.009	14.46
253.23	64.81
253.45	12.42
253.67	45.93
253.891	7.24
254.111	50.18
254.331	-8.5
254.552	22.79
254.772	3.16
254.992	20.19
255.213	16.86
255.433	52.41
255.653	12.6
255.873	30.75
256.093	54.63
256.314	23.9
256.534	-9.61
256.754	42.96
256.974	-1.47
257.194	16.31
257.414	13.34
257.634	12.42
257.855	5.01
258.075	-6.46
258.295	13.71
258.515	24.45
258.735	9.46
258.955	48.89
259.175	-7.39
259.395	31.86
259.615	36.67
259.835	47.22
260.054	1.5
260.274	24.45
260.494	22.79
260.714	63.88
260.934	37.41
261.154	24.27
261.374	10.38
261.593	21.68
261.813	6.49
262.033	21.49
262.253	22.23
262.472	26.86
262.692	19.45
262.912	43.89
263.132	20.19
263.351	37.97
263.571	38.52
263.791	38.89
264.01	37.04
264.23	20.93
264.449	8.16
264.669	75.73
264.888	30.01
265.108	24.82
265.328	39.26
265.547	25.75
265.767	40
265.986	2.24
266.205	34.63
266.425	27.23
266.644	21.12
266.864	5.57
267.083	57.96
267.303	30.01
267.522	35
267.741	12.05
267.961	44.45
268.18	16.68
268.399	35
268.618	55.74
268.838	28.71
269.057	13.9
269.276	31.86
269.495	29.82
269.715	45.37
269.934	10.38
270.153	36.49
270.372	25.01
270.591	37.04
270.81	33.71
271.029	27.78
271.249	52.41
271.468	19.27
271.687	59.07
271.906	27.78
272.125	52.96
272.344	45.74
272.563	27.78
272.782	24.45
273.001	24.64
273.22	30.01
273.439	38.34
273.657	36.12
273.876	42.59
274.095	5.75
274.314	35.19
274.533	58.52
274.752	30.01
274.971	25.19
275.189	44.82
275.408	44.08
275.627	46.11
275.846	47.59
276.064	20.56
276.283	22.6
276.502	28.34
276.72	-7.57
276.939	54.44
277.158	19.64
277.376	33.71
277.595	42.59
277.814	27.41
278.032	51.85
278.251	12.42
278.469	4.09
278.688	37.78
278.906	60.74
279.125	39.45
279.343	16.31
279.562	36.12
279.78	-0.73
279.999	54.81
280.217	24.08
280.435	19.45
280.654	4.64
280.872	29.08
281.091	5.75
281.309	51.11
281.527	37.41
281.746	31.49
281.964	16.86
282.182	35
282.4	49.63
282.619	51.11
282.837	50.37
283.055	37.6
283.273	18.16
283.491	37.04
283.71	32.41
283.928	15.75
284.146	17.79
284.364	33.52
284.582	5.75
284.8	57.03
285.018	53.15
285.236	30.19
285.454	14.64
285.672	45
285.89	15.57
286.108	44.26
286.326	21.3
286.544	30.93
286.762	20.93
286.98	32.04
287.198	57.4
287.416	108.68
287.634	37.23
287.851	43.52
288.069	24.45
288.287	41.85
288.505	26.3
288.723	39.82
288.94	32.23
289.158	39.26
289.376	67.03
289.594	24.82
289.811	8.16
290.029	44.82
290.247	55.37
290.464	47.41
290.682	16.12
290.9	37.04
291.117	35.19
291.335	44.63
291.552	9.64
291.77	50
291.987	22.79
292.205	40.37
292.422	34.45
292.64	63.88
292.857	15.38
293.075	44.63
293.292	46.85
293.51	49.81
293.727	36.3
293.945	41.11
294.162	25.75
294.379	44.08
294.597	40
294.814	32.23
295.031	45.74
295.249	47.04
295.466	37.97
295.683	33.89
295.9	51.11
296.118	15.2
296.335	14.46
296.552	72.21
296.769	43.71
296.986	14.83
297.204	21.86
297.421	54.07
297.638	19.45
297.855	35.37
298.072	49.63
298.289	59.63
298.506	36.86
298.723	56.48
298.94	37.41
299.157	55.55
299.374	53.7
299.591	79.8
299.808	43.89
300.025	15.57
300.242	16.86
300.459	66.66
300.676	26.67
300.893	35.37
301.109	44.26
301.326	85.91
301.543	49.63
301.76	23.71
301.977	52.59
302.193	42.22
302.41	55.74
302.627	25.38
302.844	17.05
303.06	50.55
303.277	33.34
303.494	52.78
303.71	48.52
303.927	49.07
304.144	21.68
304.36	50.55
304.577	36.12
304.793	67.77
305.01	21.86
305.227	64.99
305.443	22.97
305.66	87.39
305.876	14.27
306.093	59.63
306.309	38.71
306.526	34.26
306.742	59.63
306.958	66.66
307.175	55.74
307.391	55.37
307.608	61.11
307.824	71.47
308.04	47.59
308.257	45
308.473	69.07
308.689	52.04
308.905	64.81
309.122	44.63
309.338	38.15
309.554	56.85
309.77	45.74
309.986	60.37
310.203	16.31
310.419	61.85
310.635	58.15
310.851	38.52
311.067	40.56
311.283	82.21
311.499	43.71
311.715	65.36
311.931	57.77
312.147	65.74
312.363	41.11
312.579	68.33
312.795	78.88
313.011	55
313.227	44.26
313.443	92.21
313.659	83.51
313.875	41.48
314.091	64.62
314.307	49.44
314.523	62.22
314.738	60.74
314.954	65.74
315.17	43.52
315.386	48.89
315.602	51.11
315.817	33.15
316.033	66.29
316.249	44.82
316.465	79.99
316.68	26.3
316.896	64.25
317.112	55
317.327	49.07
317.543	89.8
317.758	47.59
317.974	41.48
318.19	72.96
318.405	46.67
318.621	68.7
318.836	54.63
319.052	54.81
319.267	56.66
319.483	51.67
319.698	28.9
319.914	65.36
320.129	62.22
320.344	80.18
320.56	48.52
320.775	75.18
320.99	68.51
321.206	74.25
321.421	58.89
321.636	81.29
321.852	70.92
322.067	35
322.282	19.27
322.498	55.55
322.713	42.41
322.928	102.39
323.143	59.44
323.358	73.51
323.574	73.14
323.789	85.91
324.004	45
324.219	69.62
324.434	78.14
324.649	69.81
324.864	37.97
325.079	46.48
325.294	69.44
325.509	44.82
325.724	49.07
325.939	72.03
326.154	40.37
326.369	98.69
326.584	74.07
326.799	58.7
327.014	84.99
327.229	46.48
327.444	44.82
327.659	52.04
327.873	66.85
328.088	73.7
328.303	55.18
328.518	80.55
328.733	40.74
328.947	55
329.162	74.81
329.377	55.92
329.591	84.25
329.806	68.33
330.021	58.52
330.235	100.54
330.45	57.03
330.665	50
330.879	75.18
331.094	117.76
331.309	74.99
331.523	82.03
331.738	115.53
331.952	112.02
332.167	129.05
332.381	93.69
332.596	133.68
332.81	115.9
333.025	133.86
333.239	152.19
333.453	121.83
333.668	137.56
333.882	142.75
334.097	98.5
334.311	87.02
334.525	92.02
334.74	88.51
334.954	64.07
335.168	99.06
335.382	95.54
335.597	71.29
335.811	82.58
336.025	69.07
336.239	109.8
336.453	75.92
336.668	77.77
336.882	50.74
337.096	78.51
337.31	73.14
337.524	53.52
337.738	57.22
337.952	86.65
338.166	84.43
338.38	80.73
338.594	72.4
338.808	44.82
339.022	96.1
339.236	47.78
339.45	60
339.664	109.24
339.878	72.96
340.092	51.48
340.306	31.67
340.52	71.29
340.734	72.77
340.948	68.51
341.161	57.77
341.375	65.74
341.589	28.71
341.803	67.4
342.017	54.26
342.23	65.74
342.444	52.04
342.658	53.15
342.871	54.26
343.085	52.78
343.299	38.71
343.512	51.11
343.726	49.81
343.94	82.4
344.153	64.81
344.367	66.48
344.58	30.38
344.794	55.92
345.008	42.04
345.221	50.18
345.435	44.26
345.648	53.89
345.862	26.49
346.075	48.89
346.288	77.58
346.502	71.84
346.715	51.85
346.929	54.81
347.142	43.52
347.355	71.1
347.569	46.67
347.782	41.11
347.995	49.63
348.209	77.95
348.422	28.52
348.635	50
348.848	65.55
349.062	57.77
349.275	80.55
349.488	57.4
349.701	70.73
349.914	47.59
350.128	46.48
350.341	40.37
350.554	30.75
350.767	56.11
350.98	29.27
351.193	50.18
351.406	53.33
351.619	58.33
351.832	82.77
352.045	79.25
352.258	83.69
352.471	109.8
352.684	105.54
352.897	99.06
353.11	101.46
353.323	114.05
353.536	67.59
353.748	110.72
353.961	74.62
354.174	95.54
354.387	108.5
354.6	62.59
354.813	73.88
355.025	94.43
355.238	69.44
355.451	47.41
355.664	51.11
355.876	73.88
356.089	68.7
356.302	87.58
356.514	21.12
356.727	49.26
356.94	54.63
357.152	63.33
357.365	67.03
357.577	77.58
357.79	60.18
358.002	50
358.215	40.37
358.427	54.07
358.64	55.74
358.852	50.18
359.065	30.38
359.277	44.26
359.49	54.26
359.702	72.96
359.915	61.29
360.127	67.59
360.339	55.18
360.552	74.81
360.764	70.18
360.976	103.5
361.189	69.07
361.401	88.69
361.613	111.83
361.825	45.93
362.038	69.62
362.25	60
362.462	69.44
362.674	51.48
362.886	56.85
363.099	83.88
363.311	62.4
363.523	77.58
363.735	60
363.947	59.26
364.159	97.02
364.371	68.14
364.583	22.97
364.795	43.71
365.007	79.62
365.219	36.49
365.431	30.38
365.643	68.7
365.855	39.82
366.067	53.7
366.279	31.3
366.491	53.89
366.703	41.67
366.914	43.33
367.126	43.15
367.338	82.58
367.55	57.96
367.762	70.36
367.974	11.68
368.185	27.04
368.397	56.48
368.609	54.26
368.82	42.41
369.032	53.33
369.244	33.34
369.456	64.81
369.667	45.93
369.879	67.96
370.09	27.78
370.302	45.74
370.514	60.37
370.725	72.96
370.937	33.71
371.148	25.56
371.36	39.82
371.571	32.41
371.783	32.6
371.994	44.26
372.206	52.78
372.417	76.1
372.629	32.78
372.84	15.38
373.051	35.74
373.263	72.58
373.474	49.81
373.685	33.89
373.897	53.89
374.108	70.92
374.319	55.18
374.531	44.63
374.742	65.18
374.953	60.92
375.164	21.68
375.375	72.58
375.587	29.45
375.798	58.15
376.009	55
376.22	44.63
376.431	58.89
376.642	40
376.853	32.6
377.065	66.11
377.276	64.07
377.487	52.59
377.698	31.86
377.909	55
378.12	57.77
378.331	61.48
378.542	23.53
378.753	44.45
378.964	45.37
379.174	32.23
379.385	46.11
379.596	37.97
379.807	67.03
380.018	50
380.229	95.91
380.44	103.13
380.65	52.41
380.861	95.54
381.072	71.84
381.283	76.1
381.493	80.18
381.704	69.07
381.915	57.77
382.126	69.99
382.336	81.66
382.547	81.66
382.757	54.44
382.968	53.33
383.179	62.22
383.389	78.14
383.6	55
383.81	69.44
384.021	74.25
384.231	85.91
384.442	52.96
384.652	78.69
384.863	86.84
385.073	67.59
385.284	83.88
385.494	75.18
385.705	72.77
385.915	94.43
386.125	71.66
386.336	76.47
386.546	76.84
386.756	115.72
386.967	47.41
387.177	104.24
387.387	78.14
387.598	81.66
387.808	86.84
388.018	89.99
388.228	55.37
388.439	60.55
388.649	40.56
388.859	35.74
389.069	65.36
389.279	40.74
389.489	66.11
389.699	46.85
389.909	63.33
390.12	33.52
390.33	47.78
390.54	56.48
390.75	68.7
390.96	67.4
391.17	133.12
391.38	172.55
391.59	216.43
391.799	245.86
392.009	267.15
392.219	233.09
392.429	166.26
392.639	164.04
392.849	111.09
393.059	117.02
393.269	90.91
393.478	82.95
393.688	52.59
393.898	81.66
394.108	25.93
394.317	47.41
394.527	47.78
394.737	51.48
394.947	46.48
395.156	45
395.366	58.89
395.576	68.88
395.785	16.31
395.995	39.08
396.204	58.7
396.414	25.01
396.624	48.33
396.833	49.26
397.043	31.49
397.252	52.41
397.462	64.25
397.671	53.33
397.881	36.49
398.09	31.49
398.299	25.19
398.509	39.63
398.718	36.3
398.928	61.11
399.137	38.34
399.346	57.4
399.556	29.82
399.765	19.08
399.974	32.6
400.184	39.82
400.393	94.61
400.602	89.43
400.811	134.6
401.021	209.39
401.23	248.45
401.439	291.59
401.648	277.89
401.857	229.57
402.066	176.81
402.276	163.3
402.485	148.12
402.694	115.35
402.903	112.94
403.112	68.33
403.321	76.29
403.53	65.92
403.739	32.78
403.948	27.41
404.157	50.93
404.366	29.27
404.575	37.41
404.784	81.84
404.993	41.11
405.202	91.28
405.411	55.18
405.619	28.15
405.828	60.18
406.037	57.4
406.246	35.19
406.455	73.7
406.663	69.99
406.872	47.96
407.081	60
407.29	85.91
407.498	36.3
407.707	82.03
407.916	52.04
408.124	68.14
408.333	77.03
408.542	38.52
408.75	68.33
408.959	42.78
409.168	58.52
409.376	38.71
409.585	48.15
409.793	96.84
410.002	52.22
410.21	67.4
410.419	54.07
410.627	50.74
410.836	49.26
411.044	38.71
411.253	51.85
411.461	52.78
411.669	92.58
411.878	120.72
412.086	314.54
412.294	677.02
412.503	921.76
412.711	1166.68
412.919	1329.41
413.128	1278.31
413.336	1020.62
413.544	879.92
413.752	692.02
413.961	578.72
414.169	432.66
414.377	359.35
414.585	300.48
414.793	293.63
415.001	269.74
415.209	334.35
415.418	390.26
415.626	484.49
415.834	540.21
416.042	683.32
416.25	1004.69
416.458	1299.97
416.666	1505.09
416.874	1737.42
417.082	1754.83
417.29	1567.11
417.498	1281.46
417.706	994.51
417.913	775.51
418.121	642.4
418.329	495.97
418.537	309.73
418.745	201.8
418.953	153.48
419.161	108.68
419.368	98.69
419.576	32.97
419.784	62.03
419.992	51.11
420.199	73.33
420.407	8.16
420.615	70.55
420.822	46.67
421.03	65.92
421.238	49.81
421.445	59.63
421.653	76.84
421.861	129.42
422.068	154.23
422.276	322.32
422.483	382.86
422.691	498.37
422.898	581.5
423.106	601.68
423.313	666.47
423.521	719.79
423.728	786.06
423.936	775.51
424.143	725.52
424.35	724.23
424.558	582.98
424.765	476.9
424.973	353.42
425.18	282.7
425.387	251.42
425.594	184.4
425.802	201.43
426.009	129.97
426.216	181.25
426.424	279.93
426.631	344.54
426.838	385.45
427.045	406.37
427.252	441.91
427.459	386.93
427.667	344.35
427.874	294
428.081	292.33
428.288	245.49
428.495	193.1
428.702	184.22
428.909	142.56
429.116	97.02
429.323	106.09
429.53	139.79
429.737	246.97
429.944	345.09
430.151	459.68
430.358	540.4
430.565	596.12
430.772	501.52
430.979	536.51
431.185	496.71
431.392	466.72
431.599	398.59
431.806	349.53
432.013	264.01
432.219	214.58
432.426	160.52
432.633	150.89
432.84	94.43
433.046	103.87
433.253	61.11
433.46	93.69
433.666	57.96
433.873	50.37
434.08	77.21
434.286	81.47
434.493	73.88
434.7	56.29
434.906	58.33
435.113	38.15
435.319	54.07
435.526	27.97
435.732	60.18
435.939	47.41
436.145	24.27
436.352	43.89
436.558	11.31
436.765	46.67
436.971	40.19
437.177	47.59
437.384	14.64
437.59	15.94
437.796	49.07
438.003	43.71
438.209	57.03
438.415	25.19
438.622	62.4
438.828	55
439.034	49.81
439.24	55
439.447	55.74
439.653	51.3
439.859	59.63
440.065	67.4
440.271	28.34
440.477	48.15
440.683	24.82
440.89	3.35
441.096	52.41
441.302	71.29
441.508	69.99
441.714	38.52
441.92	3.9
442.126	16.49
442.332	32.23
442.538	36.86
442.744	27.41
442.95	22.79
443.156	34.26
443.361	71.66
443.567	2.42
443.773	54.81
443.979	36.67
444.185	34.82
444.391	16.86
444.596	36.12
444.802	35.56
445.008	65.18
445.214	18.9
445.42	60.18
445.625	23.53
445.831	76.1
446.037	67.4
446.242	49.81
446.448	24.08
446.654	45.74
446.859	38.89
447.065	48.52
447.27	82.4
447.476	134.23
447.682	166.26
447.887	241.98
448.093	248.08
448.298	251.6
448.504	224.94
448.709	200.14
448.915	203.47
449.12	187.55
449.325	163.67
449.531	149.41
449.736	103.5
449.942	78.69
450.147	74.25
450.352	79.8
450.558	32.78
450.763	91.1
450.968	77.95
451.174	30.93
451.379	87.95
451.584	78.51
451.789	28.15
451.995	65.36
452.2	32.23
452.405	22.97
452.61	23.9
452.815	65.74
453.02	38.52
453.226	65.74
453.431	63.7
453.636	14.46
453.841	39.45
454.046	44.45
454.251	31.49
454.456	26.12
454.661	32.23
454.866	65.92
455.071	55.18
455.276	51.67
455.481	52.59
455.686	55.92
455.891	51.67
456.095	104.98
456.3	77.58
456.505	78.88
456.71	108.5
456.915	92.95
457.12	75.55
457.324	67.96
457.529	59.63
457.734	60
457.939	32.41
458.144	55.18
458.348	40.37
458.553	41.48
458.758	29.27
458.962	49.63
459.167	37.78
459.372	77.03
459.576	99.43
459.781	61.29
459.985	77.77
460.19	86.65
460.394	55.92
460.599	90.91
460.803	50.18
461.008	67.22
461.212	31.67
461.417	76.47
461.621	25.56
461.826	45
462.03	21.86
462.235	66.66
462.439	31.12
462.643	84.8
462.848	56.29
463.052	27.23
463.256	55.18
463.461	47.78
463.665	30.01
463.869	44.45
464.074	17.97
464.278	34.26
464.482	50
464.686	30.56
464.89	32.41
465.095	81.29
465.299	36.12
465.503	47.96
465.707	25.19
465.911	48.52
466.115	46.11
466.319	36.3
466.523	63.14
466.727	99.61
466.931	103.87
467.135	107.39
467.339	112.57
467.543	117.94
467.747	102.95
467.951	81.1
468.155	53.15
468.359	88.51
468.563	67.59
468.767	47.22
468.971	61.85
469.175	53.7
469.379	46.67
469.582	83.14
469.786	26.67
469.99	30.38
470.194	49.44
470.397	67.59
470.601	46.3
470.805	62.96
471.009	26.12
471.212	54.26
471.416	21.68
471.62	35.74
471.823	35.56
472.027	80.36
472.23	7.05
472.434	68.14
472.638	42.96
472.841	32.6
473.045	39.82
473.248	44.08
473.452	56.66
473.655	45
473.859	39.82
474.062	56.48
474.266	56.29
474.469	30.38
474.672	35.19
474.876	46.11
475.079	20.75
475.283	52.78
475.486	30.01
475.689	24.27
475.893	22.05
476.096	59.63
476.299	22.42
476.502	25.38
476.706	27.23
476.909	45.19
477.112	49.26
477.315	60.74
477.519	48.7
