Data from FLMT087451__5__13-51-13-532.txt Node

Date: Tue Jun 04 13:51:13 JST 2024
User: power
Spectrometer: FLMT08745
Trigger mode: 0
Integration Time (sec): 5.000000E-1
Scans to average: 11
Electric dark correction enabled: true
Nonlinearity correction enabled: false
Boxcar width: 0
XAxis mode: Wavelengths
Number of Pixels in Spectrum: 3648
>>>>>Begin Spectral Data<<<<<
194.923	-727.84
195.148	-727.84
195.372	-727.84
195.597	-774.68
195.821	-749.13
196.046	219.64
196.271	-106.74
196.495	-215.04
196.72	-107.48
196.944	-36.39
197.169	-30.28
197.393	155.03
197.618	33.21
197.842	223.34
198.067	32.1
198.291	-239.11
198.516	71.72
198.74	-186.53
198.964	232.97
199.189	23.59
199.413	211.68
199.637	195.57
199.862	1.19
200.086	-5.66
200.31	202.05
200.535	44.69
200.759	491.22
200.983	-169.68
201.207	-111.92
201.432	51.17
201.656	315.16
201.88	1
202.104	-177.46
202.328	209.08
202.552	236.85
202.777	49.51
203.001	-20.1
203.225	-42.5
203.449	-314.64
203.673	96.71
203.897	-42.32
204.121	37.29
204.345	239.26
204.569	-159.32
204.793	7.48
205.017	116.52
205.241	197.05
205.465	-112.85
205.689	-100.08
205.912	79.13
206.136	-182.64
206.36	-23.99
206.584	27.85
206.808	-172.28
207.032	178.54
207.255	111.15
207.479	132.44
207.703	48.4
207.927	0.26
208.15	-187.64
208.374	-62.87
208.598	-130.25
208.822	2.3
209.045	-70.64
209.269	1.37
209.492	540.83
209.716	313.68
209.94	63.39
210.163	70.43
210.387	329.05
210.61	216.12
210.834	-93.97
211.057	-38.06
211.281	-153.21
211.504	-85.08
211.728	-52.31
211.951	200.94
212.175	431.24
212.398	-30.1
212.622	-97.67
212.845	405.13
213.068	38.58
213.292	115.97
213.515	-128.03
213.738	-91.56
213.962	-8.25
214.185	-159.87
214.408	42.29
214.631	148.36
214.855	120.41
215.078	-54.72
215.301	111.15
215.524	-47.32
215.747	233.89
215.971	-67.31
216.194	-70.27
216.417	-56.76
216.64	161.14
216.863	1324.1
217.086	65.24
217.309	-160.8
217.532	240.74
217.755	-129.88
217.978	61.91
218.201	183.91
218.424	307.2
218.647	-39.91
218.87	-32.13
219.093	103.93
219.316	349.22
219.539	5.82
219.762	-120.07
219.985	-72.68
220.207	-333.89
220.43	48.4
220.653	42.29
220.876	-98.97
221.099	344.97
221.321	20.63
221.544	-82.3
221.767	76.9
221.99	-9.92
222.212	60.06
222.435	86.53
222.658	134.29
222.88	-155.8
223.103	405.87
223.326	-219.48
223.548	21
223.771	7.11
223.993	-24.54
224.216	-88.6
224.438	45.99
224.661	78.76
224.883	144.85
225.106	188.17
225.328	-116
225.551	263.33
225.773	-61.01
225.996	-72.31
226.218	-23.62
226.44	164.65
226.663	132.07
226.885	-23.99
227.108	44.14
227.33	160.21
227.552	38.21
227.774	26.92
227.997	11.93
228.219	104.12
228.441	247.78
228.663	160.21
228.886	-86.93
229.108	-10.85
229.33	2.48
229.552	-146.73
229.774	54.5
229.996	78.76
230.219	204.27
230.441	-60.46
230.663	62.83
230.885	-53.42
231.107	42.84
231.329	57.47
231.551	205.75
231.773	16.92
231.995	81.9
232.217	-26.4
232.439	-46.02
232.661	10.07
232.883	-4.37
233.105	-97.48
233.326	-78.79
233.548	315.53
233.77	-32.69
233.992	160.4
234.214	-87.86
234.436	-110.63
234.657	75.24
234.879	260.18
235.101	-191.53
235.323	109.67
235.544	48.4
235.766	109.12
235.988	123.19
236.21	240.37
236.431	309.42
236.653	100.23
236.874	241.3
237.096	173.91
237.318	-225.96
237.539	90.23
237.761	-31.02
237.982	10.26
238.204	441.97
238.425	-74.9
238.647	14.33
238.868	-33.8
239.09	151.51
239.311	-230.22
239.533	-43.43
239.754	221.67
239.975	-12.51
240.197	-98.6
240.418	-86.75
240.64	193.9
240.861	93.38
241.082	40.8
241.304	-27.14
241.525	8.41
241.746	-6.59
241.967	-292.98
242.189	1
242.41	323.12
242.631	600.26
242.852	-104.15
243.073	119.11
243.294	11.55
243.516	139.11
243.737	5.45
243.958	-130.99
244.179	87.83
244.4	443.45
244.621	-59.16
244.842	-7.51
245.063	352
245.284	126.52
245.505	38.95
245.726	17.48
245.947	264.44
246.168	-24.91
246.389	-79.9
246.61	46.17
246.831	349.78
247.052	8.41
247.272	53.02
247.493	-56.2
247.714	282.39
247.935	-145.62
248.156	163.17
248.376	81.35
248.597	360.52
248.818	8.04
249.039	-61.75
249.259	-28.25
249.48	-173.02
249.701	207.79
249.921	-104.52
250.142	-124.7
250.363	195.94
250.583	93.38
250.804	46.73
251.025	105.97
251.245	307.2
251.466	247.78
251.686	-41.21
251.907	-120.25
252.127	266.66
252.348	121.15
252.568	-48.24
252.789	196.68
253.009	209.64
253.23	414.2
253.45	62.46
253.67	81.35
253.891	-80.64
254.111	328.68
254.331	-36.76
254.552	14.33
254.772	162.8
254.992	33.03
255.213	-126.36
255.433	170.76
255.653	58.02
255.873	135.77
256.093	136.33
256.314	-95.63
256.534	-94.71
256.754	395.51
256.974	-62.31
257.194	-65.46
257.414	21.92
257.634	123.19
257.855	-23.43
258.075	-137.84
258.295	2.67
258.515	-48.8
258.735	134.48
258.955	19.52
259.175	-21.21
259.395	77.46
259.615	30.99
259.835	98.56
260.054	37.66
260.274	184.46
260.494	9.33
260.714	389.77
260.934	179.46
261.154	172.8
261.374	-42.87
261.593	-46.76
261.813	-156.72
262.033	17.66
262.253	-40.47
262.472	56.17
262.692	101.53
262.912	174.1
263.132	69.68
263.351	87.09
263.571	454.38
263.791	164.84
264.01	154.47
264.23	78.02
264.449	9.15
264.669	413.65
264.888	130.04
265.108	-1.4
265.328	422.72
265.547	107.64
265.767	42.29
265.986	-183.57
266.205	205.57
266.425	63.95
266.644	33.21
266.864	-178.38
267.083	350.89
267.303	28.03
267.522	81.9
267.741	44.88
267.961	310.35
268.18	-132.29
268.399	179.09
268.618	40.99
268.838	312.01
269.057	54.13
269.276	13.78
269.495	21.37
269.715	416.98
269.934	-72.86
270.153	186.31
270.372	-159.13
270.591	236.11
270.81	295.91
271.029	169.28
271.249	62.65
271.468	22.66
271.687	334.6
271.906	29.51
272.125	162.43
272.344	272.77
272.563	32.29
272.782	11.18
273.001	-118.77
273.22	140.4
273.439	208.53
273.657	116.89
273.876	120.78
274.095	-172.83
274.314	283.51
274.533	170.58
274.752	21
274.971	271.1
275.189	434.94
275.408	194.83
275.627	-14.92
275.846	268.7
276.064	85.24
276.283	-172.65
276.502	80.42
276.72	-78.05
276.939	34.51
277.158	-93.04
277.376	-34.36
277.595	221.49
277.814	73.39
278.032	166.51
278.251	-128.96
278.469	-59.9
278.688	99.12
278.906	266.84
279.125	23.22
279.343	65.24
279.562	73.02
279.78	-202.82
279.999	38.03
280.217	95.97
280.435	99.3
280.654	-111.18
280.872	132.81
281.091	170.21
281.309	161.14
281.527	142.44
281.746	-19.92
281.964	-63.24
282.182	116.89
282.4	3.96
282.619	242.22
282.837	392.17
283.055	-13.25
283.273	-38.98
283.491	6.56
283.71	195.39
283.928	51.54
284.146	-8.07
284.364	51.54
284.582	67.46
284.8	135.22
285.018	85.79
285.236	-170.42
285.454	315.35
285.672	222.97
285.89	-46.57
286.108	-160.24
286.326	138
286.544	196.31
286.762	-57.5
286.98	-173.76
287.198	475.85
287.416	712.63
287.634	152.25
287.851	44.51
288.069	135.96
288.287	72.65
288.505	-96.19
288.723	73.39
288.94	200.75
289.158	80.42
289.376	239.82
289.594	19.52
289.811	-71.01
290.029	20.81
290.247	279.25
290.464	131.52
290.682	-122.48
290.9	190.39
291.117	88.57
291.335	-5.29
291.552	-110.26
291.77	140.59
291.987	-40.84
292.205	-18.99
292.422	139.66
292.64	288.69
292.857	-170.98
293.075	-17.51
293.292	60.98
293.51	141.7
293.727	-67.12
293.945	-157.09
294.162	162.99
294.379	138.18
294.597	-64.16
294.814	-66.57
295.031	157.06
295.249	289.06
295.466	-8.25
295.683	-55.28
295.9	202.05
296.118	36.36
296.335	-127.84
296.552	12.3
296.769	486.03
296.986	267.03
297.204	-75.08
297.421	-44.17
297.638	221.86
297.855	280.36
298.072	-144.51
298.289	-18.81
298.506	35.07
298.723	314.24
298.94	-96.93
299.157	-9.92
299.374	169.47
299.591	358.3
299.808	-144.14
300.025	-153.02
300.242	65.61
300.459	272.95
300.676	-118.59
300.893	-87.67
301.109	312.38
301.326	428.09
301.543	154.1
301.76	41.18
301.977	140.96
302.193	129.48
302.41	240.93
302.627	-129.33
302.844	76.16
303.06	87.27
303.277	-68.42
303.494	2.85
303.71	147.99
303.927	280.73
304.144	-57.87
304.36	37.84
304.577	102.27
304.793	306.09
305.01	-134.69
305.227	-93.97
305.443	217.23
305.66	588.22
305.876	-165.06
306.093	-98.78
306.309	255
306.526	-17.69
306.742	294.8
306.958	126.33
307.175	375.51
307.391	140.22
307.608	135.4
307.824	30.25
308.04	327.75
308.257	98.75
308.473	133.55
308.689	-131.18
308.905	344.23
309.122	54.13
309.338	-130.07
309.554	90.6
309.77	305.72
309.986	288.32
310.203	-158.21
310.419	-43.98
310.635	272.03
310.851	7.85
311.067	190.57
311.283	-81.93
311.499	-58.61
311.715	73.76
311.931	143.92
312.147	15.63
312.363	-152.47
312.579	271.1
312.795	-0.66
313.011	-167.83
313.227	12.11
313.443	435.12
313.659	68.39
313.875	-62.13
314.091	322.01
314.307	320.53
314.523	-80.64
314.738	-37.13
314.954	464.56
315.17	16.37
315.386	-1.59
315.602	-63.98
315.817	101.53
316.033	122.08
316.249	-18.07
316.465	-11.77
316.68	61.35
316.896	235.56
317.112	-73.79
317.327	-38.8
317.543	742.99
317.758	186.31
317.974	256.66
318.19	287.58
318.405	340.52
318.621	409.58
318.836	211.12
319.052	187.61
319.267	438.27
319.483	242.04
319.698	289.43
319.914	222.41
320.129	340.52
320.344	635.06
320.56	280.17
320.775	338.3
320.99	427.16
321.206	393.47
321.421	224.26
321.636	28.77
321.852	342.19
322.067	209.64
322.282	-45.46
322.498	-65.83
322.713	310.16
322.928	379.03
323.143	-48.8
323.358	26.18
323.574	414.76
323.789	107.64
324.004	-39.91
324.219	34.14
324.434	434.94
324.649	182.43
324.864	146.88
325.079	69.31
325.294	158.36
325.509	48.02
325.724	162.99
325.939	-8.62
326.154	309.42
326.369	764.09
326.584	-18.07
326.799	-136.92
327.014	517.69
327.229	137.26
327.444	81.53
327.659	64.5
327.873	379.4
328.088	444.56
328.303	178.91
328.518	55.61
328.733	195.94
328.947	419.76
329.162	143.18
329.377	151.88
329.591	471.78
329.806	155.21
330.021	29.88
330.235	173.54
330.45	327.19
330.665	-16.77
330.879	23.59
331.094	159.66
331.309	204.83
331.523	297.02
331.738	101.53
331.952	115.6
332.167	507.51
332.381	57.28
332.596	114.67
332.81	159.66
333.025	391.25
333.239	767.24
333.453	597.66
333.668	782.79
333.882	1205.62
334.097	1039.93
334.311	897.57
334.525	891.64
334.74	982.36
334.954	703.56
335.168	676.9
335.382	620.06
335.597	795.19
335.811	670.23
336.025	746.88
336.239	530.65
336.453	911.82
336.668	798.9
336.882	393.28
337.096	410.32
337.31	661.72
337.524	837.96
337.738	871.47
337.952	1071.96
338.166	1557.91
338.38	1702.87
338.594	1546.06
338.808	1297.44
339.022	1652.33
339.236	1171.74
339.45	835.37
339.664	1190.62
339.878	948.85
340.092	691.34
340.306	572.49
340.52	799.64
340.734	1167.85
340.948	1090.47
341.161	1130.46
341.375	1103.06
341.589	1324.28
341.803	1348.54
342.017	1273
342.23	1380.19
342.444	2059.79
342.658	1892.62
342.871	1891.33
343.085	1681.76
343.299	1575.87
343.512	1525.89
343.726	1105.28
343.94	1095.47
344.153	1183.59
344.367	1045.48
344.58	593.04
344.794	535.65
345.008	483.63
345.221	502.32
345.435	665.61
345.648	703.37
345.862	800.93
346.075	899.23
346.288	826.85
346.502	831.11
346.715	860.36
346.929	367.92
347.142	482.33
347.355	542.13
347.569	879.06
347.782	1000.68
347.995	954.96
348.209	1090.28
348.422	1172.48
348.635	1684.35
348.848	1814.31
349.062	1826.16
349.275	2458.37
349.488	2237.33
349.701	1905.76
349.914	1317.99
350.128	1464.61
350.341	1026.05
350.554	508.8
350.767	472.7
350.98	705.41
351.193	470.67
351.406	369.03
351.619	489.92
351.832	706.33
352.045	509.91
352.258	421.05
352.471	571.19
352.684	821.48
352.897	1045.67
353.11	849.99
353.323	1073.25
353.536	911.64
353.748	1487.75
353.961	1145.64
354.174	1405.55
354.387	1843.38
354.6	1795.61
354.813	1863
355.025	1840.79
355.238	2051.27
355.451	1883.36
355.664	1797.47
355.876	1941.49
356.089	2318.04
356.302	2030.35
356.514	2023.88
356.727	1747.67
356.94	1880.03
357.152	1741.56
357.365	1768.77
357.577	1609.01
357.79	1535.7
358.002	1202.84
358.215	1285.41
358.427	1399.26
358.64	1748.41
358.852	1357.98
359.065	1220.43
359.277	1080.84
359.49	1428.14
359.702	1223.21
359.915	712.81
360.127	446.79
360.339	445.68
360.552	389.21
360.764	384.58
360.976	251.66
361.189	226.3
361.401	619.51
361.613	342.38
361.825	35.99
362.038	391.62
362.25	527.87
362.462	129.11
362.674	63.39
362.886	630.43
363.099	429.94
363.311	185.94
363.523	299.8
363.735	567.12
363.947	344.23
364.159	344.04
364.371	239.63
364.583	267.95
364.795	265.55
365.007	260.55
365.219	52.47
365.431	307.94
365.643	180.95
365.855	43.95
366.067	-86.19
366.279	177.98
366.491	133.55
366.703	142.25
366.914	-0.11
367.126	192.24
367.338	403.65
367.55	40.99
367.762	68.57
367.974	146.51
368.185	-2.7
368.397	138.92
368.609	54.13
368.82	319.23
369.032	442.9
369.244	117.26
369.456	304.61
369.667	399.58
369.879	564.9
370.09	152.25
370.302	277.21
370.514	714.85
370.725	606.92
370.937	263.14
371.148	433.83
371.36	725.59
371.571	582.67
371.783	488.07
371.994	426.05
372.206	523.43
372.417	942.18
372.629	275.91
372.84	212.79
373.051	324.6
373.263	603.59
373.474	275.91
373.685	168.36
373.897	475.85
374.108	508.8
374.319	192.05
374.531	274.62
374.742	573.97
374.953	378.1
375.164	170.58
375.375	178.35
375.587	316.09
375.798	447.53
376.009	361.44
376.22	277.21
376.431	409.21
376.642	298.32
376.853	377.55
377.065	467.34
377.276	531.39
377.487	394.21
377.698	206.12
377.909	385.69
378.12	600.26
378.331	279.43
378.542	272.03
378.753	206.49
378.964	356.82
379.174	468.82
379.385	248.33
379.596	97.08
379.807	571.19
380.018	154.1
380.229	383.66
380.44	365.7
380.65	185.2
380.861	427.9
381.072	222.97
381.283	341.82
381.493	685.23
381.704	644.13
381.915	360.33
382.126	266.1
382.336	793.9
382.547	759.46
382.757	421.05
382.968	293.87
383.179	526.76
383.389	726.51
383.6	356.07
383.81	272.21
384.021	817.78
384.231	827.59
384.442	277.4
384.652	186.31
384.863	717.07
385.073	584.15
385.284	538.24
385.494	364.41
385.705	445.49
385.915	420.87
386.125	306.83
386.336	289.24
386.546	227.6
386.756	531.57
386.967	120.78
387.177	262.4
387.387	624.32
387.598	346.26
387.808	252.96
388.018	283.51
388.228	436.05
388.439	497.33
388.649	247.41
388.859	224.82
389.069	640.8
389.279	310.72
389.489	341.45
389.699	299.61
389.909	347.74
390.12	138.18
390.33	442.16
390.54	176.5
390.75	592.48
390.96	254.63
391.17	215.01
391.38	132.81
391.59	102.08
391.799	242.78
392.009	363.66
392.219	109.12
392.429	231.11
392.639	265.55
392.849	95.97
393.059	178.35
393.269	519.91
393.478	383.29
393.688	390.32
393.898	356.82
394.108	199.46
394.317	310.35
394.527	172.06
394.737	266.47
394.947	321.64
395.156	194.09
395.366	240.19
395.576	287.39
395.785	383.1
395.995	459.19
396.204	212.79
396.414	-18.62
396.624	205.2
396.833	53.95
397.043	3.78
397.252	93.2
397.462	589.89
397.671	195.57
397.881	-58.61
398.09	90.97
398.299	18.59
398.509	215.93
398.718	158.55
398.928	146.51
399.137	514.91
399.346	236.85
399.556	143.36
399.765	-86.56
399.974	85.42
400.184	259.62
400.393	207.42
400.602	177.8
400.811	411.8
401.021	250.55
401.23	353.85
401.439	316.83
401.648	430.68
401.857	287.76
402.066	152.25
402.276	145.4
402.485	550.83
402.694	243.33
402.903	115.41
403.112	22.66
403.321	555.46
403.53	472.89
403.739	187.42
403.948	244.07
404.157	632.84
404.366	418.83
404.575	330.16
404.784	408.65
404.993	509.73
405.202	815
405.411	266.84
405.619	10.07
405.828	302.57
406.037	361.07
406.246	75.61
406.455	-35.1
406.663	475.11
406.872	273.32
407.081	402.17
407.29	413.46
407.498	557.86
407.707	371.44
407.916	220.19
408.124	192.98
408.333	713.74
408.542	48.4
408.75	105.78
408.959	53.58
409.168	321.83
409.376	306.65
409.585	359.96
409.793	285.91
410.002	535.28
410.21	676.9
410.419	373.48
410.627	232.23
410.836	402.73
411.044	351.26
411.253	140.22
411.461	29.14
411.669	594.52
411.878	508.43
412.086	58.21
412.294	185.02
412.503	179.46
412.711	543.61
412.919	330.71
413.128	210.57
413.336	223.34
413.544	604.51
413.752	299.98
413.961	290.73
414.169	254.81
414.377	455.3
414.585	224.82
414.793	69.5
415.001	174.84
415.209	327.75
415.418	75.98
415.626	270.18
415.834	257.77
416.042	264.62
416.25	81.35
416.458	139.29
416.666	428.09
416.874	845.92
417.082	639.5
417.29	355.33
417.498	515.1
417.706	404.95
417.913	313.5
418.121	297.02
418.329	729.1
418.537	189.46
418.745	102.64
418.953	227.04
419.161	588.22
419.368	319.6
419.576	-20.29
419.784	126.52
419.992	315.16
420.199	496.22
420.407	144.66
420.615	321.09
420.822	421.61
421.03	232.41
421.238	168.91
421.445	59.5
421.653	448.27
421.861	1240.05
422.068	1377.04
422.276	1813.2
422.483	1926.68
422.691	2246.21
422.898	2087.19
423.106	1469.42
423.313	1464.98
423.521	1612.34
423.728	1459.8
423.936	1661.21
424.143	2126.62
424.35	2512.42
424.558	2279.9
424.765	2213.63
424.973	2082.93
425.18	1843.75
425.387	2066.08
425.594	1974.08
425.802	2561.3
426.009	1876.7
426.216	1690.83
426.424	1506.45
426.631	1571.06
426.838	1114.17
427.045	842.03
427.252	718.74
427.459	952.55
427.667	844.07
427.874	332.38
428.081	305.54
428.288	489.74
428.495	147.25
428.702	290.54
428.909	57.28
429.116	91.71
429.323	226.49
429.53	242.04
429.737	115.78
429.944	523.98
430.151	400.5
430.358	684.86
430.565	651.72
430.772	634.87
430.979	764.09
431.185	856.84
431.392	867.21
431.599	1422.22
431.806	1280.59
432.013	1157.49
432.219	1042.71
432.426	1162.3
432.633	948.66
432.84	697.45
433.046	600.81
433.253	635.06
433.46	814.45
433.666	456.41
433.873	624.88
434.08	865.54
434.286	699.67
434.493	686.52
434.7	416.8
434.906	653.76
435.113	289.8
435.319	656.35
435.526	152.44
435.732	558.6
435.939	331.45
436.145	105.97
436.352	168.54
436.558	244.63
436.765	700.41
436.971	163.36
437.177	270.18
437.384	62.28
437.59	176.32
437.796	283.13
438.003	111.71
438.209	702.63
438.415	185.2
438.622	206.86
438.828	207.23
439.034	534.35
439.24	342.75
439.447	400.13
439.653	329.23
439.859	484.55
440.065	486.03
440.271	273.88
440.477	349.6
440.683	424.76
440.89	185.57
441.096	412.54
441.302	260.36
441.508	558.97
441.714	103.19
441.92	-20.66
442.126	-50.46
442.332	430.13
442.538	186.31
442.744	156.32
442.95	260.73
443.156	313.5
443.361	542.31
443.567	106.15
443.773	229.82
443.979	675.97
444.185	211.31
444.391	95.05
444.596	208.71
444.802	290.35
445.008	1006.42
445.214	133.37
445.42	516.95
445.625	231.67
445.831	530.83
446.037	313.68
446.242	316.27
446.448	285.73
446.654	332.75
446.859	132.81
447.065	130.96
447.27	535.83
447.476	303.31
447.682	-6.96
447.887	275.54
448.093	519.91
448.298	246.48
448.504	292.39
448.709	80.61
448.915	491.22
449.12	126.15
449.325	162.62
449.531	81.53
449.736	369.59
449.942	18.77
450.147	232.6
450.352	222.97
450.558	299.06
450.763	363.66
450.968	647.46
451.174	412.54
451.379	584.34
451.584	628.21
451.789	561.75
451.995	541.02
452.2	266.66
452.405	163.17
452.61	255
452.815	418.09
453.02	255.18
453.226	156.32
453.431	206.49
453.636	82.46
453.841	330.71
454.046	298.87
454.251	190.39
454.456	174.1
454.661	409.39
454.866	362.37
455.071	373.11
455.276	329.05
455.481	555.83
455.686	386.99
455.891	409.76
456.095	508.62
456.3	536.76
456.505	344.97
456.71	435.12
456.915	396.99
457.12	530.65
457.324	387.55
457.529	585.45
457.734	619.14
457.939	585.45
458.144	551.38
458.348	433.09
458.553	469.56
458.758	370.33
458.962	296.09
459.167	362.55
459.372	458.08
459.576	772.42
459.781	380.14
459.985	238.89
460.19	254.44
460.394	202.05
460.599	373.29
460.803	115.23
461.008	281.28
461.212	344.78
461.417	481.4
461.621	270.36
461.826	392.91
462.03	309.05
462.235	598.96
