Data from FLMT087451__10__13-55-36-535.txt Node

Date: Tue Jun 04 13:55:36 JST 2024
User: power
Spectrometer: FLMT08745
Trigger mode: 0
Integration Time (sec): 8.000000E-3
Scans to average: 11
Electric dark correction enabled: true
Nonlinearity correction enabled: false
Boxcar width: 0
XAxis mode: Wavelengths
Number of Pixels in Spectrum: 3648
>>>>>Begin Spectral Data<<<<<
194.923	6.56
195.148	6.56
195.372	6.56
195.597	-19.55
195.821	-22.32
196.046	8.04
196.271	-2.14
196.495	-25.66
196.72	-0.48
196.944	-25.1
197.169	24.7
197.393	-0.11
197.618	13.04
197.842	-11.77
198.067	0.08
198.291	-2.14
198.516	21.55
198.74	15.07
198.964	-18.99
199.189	4.52
199.413	11.37
199.637	0.63
199.862	-1.03
200.086	2.67
200.31	24.88
200.535	-4.37
200.759	-3.44
200.983	16.37
201.207	9.7
201.432	-5.11
201.656	20.81
201.88	-3.63
202.104	20.44
202.328	16.74
202.552	19.7
202.777	3.96
203.001	-6.03
203.225	7.85
203.449	3.78
203.673	1.74
203.897	-15.66
204.121	-9.92
204.345	33.03
204.569	-7.7
204.793	11.93
205.017	-10.48
205.241	12.11
205.465	-4.37
205.689	15.07
205.912	-14.73
206.136	3.78
206.36	2.48
206.584	15.63
206.808	6.37
207.032	9.7
207.255	-14.73
207.479	26.37
207.703	0.26
207.927	9.52
208.15	4.52
208.374	0.26
208.598	-8.81
208.822	8.04
209.045	-4.37
209.269	21.74
209.492	5.08
209.716	9.7
209.94	3.96
210.163	26.18
210.387	10.44
210.61	20.07
210.834	-0.11
211.057	10.07
211.281	-12.51
211.504	7.11
211.728	-14.36
211.951	22.48
212.175	-7.7
212.398	8.59
212.622	14.7
212.845	11.74
213.068	-3.26
213.292	18.96
213.515	2.11
213.738	14.33
213.962	4.34
214.185	6.93
214.408	16
214.631	11.18
214.855	-12.14
215.078	4.52
215.301	9.7
215.524	28.77
215.747	-11.77
215.971	9.33
216.194	4.15
216.417	10.63
216.64	25.62
216.863	39.51
217.086	8.96
217.309	16
217.532	-3.26
217.755	29.88
217.978	-13.62
218.201	6.93
218.424	1.93
218.647	4.34
218.87	13.59
219.093	-5.11
219.316	7.3
219.539	29.51
219.762	10.26
219.985	19.7
220.207	10.07
220.43	18.77
220.653	10.07
220.876	14.89
221.099	-0.11
221.321	24.33
221.544	8.96
221.767	16.92
221.99	2.85
222.212	0.08
222.435	13.96
222.658	15.81
222.88	-9.18
223.103	16.55
223.326	1.37
223.548	35.81
223.771	7.85
223.993	20.81
224.216	22.29
224.438	14.52
224.661	13.59
224.883	16.18
225.106	16.18
225.328	3.41
225.551	2.67
225.773	12.67
225.996	-8.81
226.218	12.48
226.44	8.22
226.663	21.92
226.885	14.89
227.108	-8.81
227.33	23.77
227.552	29.33
227.774	-2.51
227.997	24.14
228.219	5.63
228.441	25.81
228.663	15.44
228.886	26.55
229.108	35.44
229.33	1.19
229.552	-5.66
229.774	13.59
229.996	17.66
230.219	40.99
230.441	-20.47
230.663	21.37
230.885	24.88
231.107	4.34
231.329	20.81
231.551	32.29
231.773	1.37
231.995	25.62
232.217	5.63
232.439	24.14
232.661	14.15
232.883	28.22
233.105	-8.81
233.326	5.82
233.548	9.89
233.77	20.26
233.992	24.14
234.214	15.07
234.436	1.56
234.657	-2.14
234.879	-0.48
235.101	1.93
235.323	3.41
235.544	14.89
235.766	15.44
235.988	32.29
236.21	9.52
236.431	-2.88
236.653	-6.22
236.874	7.85
237.096	13.41
237.318	48.02
237.539	16.37
237.761	16
237.982	-13.25
238.204	29.88
238.425	4.34
238.647	14.33
238.868	2.11
239.09	18.96
239.311	-3.81
239.533	26.74
239.754	28.96
239.975	8.96
240.197	-6.59
240.418	11.74
240.64	-8.62
240.861	17.11
241.082	-1.59
241.304	15.07
241.525	4.52
241.746	7.3
241.967	7.85
242.189	33.96
242.41	0.08
242.631	17.48
242.852	6.56
243.073	28.4
243.294	8.41
243.516	25.07
243.737	4.52
243.958	28.03
244.179	10.81
244.4	11.74
244.621	9.33
244.842	13.22
245.063	31.55
245.284	13.96
245.505	-5.29
245.726	19.33
245.947	19.7
246.168	8.96
246.389	-21.77
246.61	7.85
246.831	-4.92
247.052	16.55
247.272	1.74
247.493	34.14
247.714	40.43
247.935	12.11
248.156	-4.55
248.376	14.89
248.597	28.03
248.818	21.55
249.039	-11.59
249.259	21
249.48	6.56
249.701	-11.22
249.921	-11.22
250.142	3.96
250.363	28.22
250.583	15.63
250.804	16.18
251.025	27.66
251.245	9.7
251.466	9.7
251.686	11
251.907	24.7
252.127	9.15
252.348	3.96
252.568	16.18
252.789	37.1
253.009	-0.85
253.23	25.99
253.45	8.59
253.67	34.7
253.891	-3.07
254.111	16.74
254.331	6.93
254.552	18.22
254.772	34.14
254.992	19.33
255.213	1
255.433	19.52
255.653	10.81
255.873	27.29
256.093	3.78
256.314	37.29
256.534	10.81
256.754	42.84
256.974	10.26
257.194	33.4
257.414	-4.37
257.634	15.81
257.855	5.26
258.075	35.81
258.295	4.15
258.515	5.26
258.735	5.08
258.955	34.14
259.175	13.41
259.395	9.89
259.615	-8.44
259.835	8.41
260.054	-25.29
260.274	17.29
260.494	1.19
260.714	25.99
260.934	-0.11
261.154	12.11
261.374	-12.7
261.593	-3.07
261.813	-2.88
262.033	2.3
262.253	5.08
262.472	21.55
262.692	11.18
262.912	-2.7
263.132	27.29
263.351	0.45
263.571	6
263.791	10.81
264.01	-5.11
264.23	34.14
264.449	-5.48
264.669	44.32
264.888	4.89
265.108	-7.14
265.328	-10.85
265.547	31.36
265.767	-2.88
265.986	15.44
266.205	3.59
266.425	17.11
266.644	-1.22
266.864	32.1
267.083	18.96
267.303	10.81
267.522	9.33
267.741	24.88
267.961	19.15
268.18	27.11
268.399	19.52
268.618	12.85
268.838	9.33
269.057	36.36
269.276	5.26
269.495	40.99
269.715	13.41
269.934	-17.51
270.153	13.78
270.372	1.37
270.591	6.56
270.81	36.36
271.029	14.89
271.249	1.19
271.468	18.22
271.687	24.51
271.906	7.85
272.125	17.29
272.344	15.07
272.563	23.03
272.782	7.3
273.001	6
273.22	9.15
273.439	11.55
273.657	0.82
273.876	13.96
274.095	-2.7
274.314	14.33
274.533	-5.48
274.752	15.81
274.971	-1.59
275.189	11.37
275.408	27.48
275.627	29.7
275.846	13.59
276.064	18.4
276.283	6
276.502	19.7
276.72	21.92
276.939	18.4
277.158	-28.62
277.376	32.29
277.595	7.85
277.814	-1.22
278.032	28.77
278.251	28.03
278.469	22.66
278.688	38.21
278.906	21.37
279.125	17.29
279.343	5.45
279.562	16
279.78	-13.25
279.999	9.52
280.217	12.48
280.435	-3.07
280.654	9.33
280.872	6.19
281.091	-5.48
281.309	19.89
281.527	32.84
281.746	27.29
281.964	2.85
282.182	18.59
282.4	5.08
282.619	33.77
282.837	22.48
283.055	6.56
283.273	11
283.491	18.03
283.71	23.4
283.928	21.37
284.146	-9.73
284.364	18.03
284.582	-10.48
284.8	16
285.018	-3.44
285.236	9.15
285.454	19.15
285.672	11.55
285.89	13.96
286.108	21.74
286.326	16.37
286.544	31.73
286.762	26.37
286.98	23.59
287.198	10.07
287.416	19.15
287.634	14.33
287.851	9.7
288.069	17.66
288.287	33.03
288.505	3.96
288.723	20.07
288.94	7.85
289.158	40.62
289.376	21.18
289.594	43.58
289.811	16.74
290.029	10.44
290.247	40.99
290.464	30.62
290.682	34.51
290.9	74.13
291.117	80.42
291.335	147.07
291.552	152.07
291.77	162.43
291.987	208.34
292.205	207.97
292.422	210.38
292.64	225.93
292.857	198.16
293.075	177.98
293.292	165.76
293.51	187.98
293.727	173.36
293.945	212.97
294.162	195.94
294.379	186.5
294.597	153.55
294.814	136.7
295.031	63.02
295.249	44.69
295.466	41.18
295.683	28.03
295.9	14.33
296.118	25.25
296.335	16.18
296.552	35.44
296.769	5.45
296.986	27.48
297.204	12.11
297.421	14.7
297.638	21
297.855	29.51
298.072	13.96
298.289	45.06
298.506	27.66
298.723	34.33
298.94	36.18
299.157	65.8
299.374	3.22
299.591	59.69
299.808	20.26
300.025	18.22
300.242	38.58
300.459	40.25
300.676	47.1
300.893	41.18
301.109	30.81
301.326	35.62
301.543	63.58
301.76	38.4
301.977	31.55
302.193	51.91
302.41	49.88
302.627	41.92
302.844	46.36
303.06	82.64
303.277	68.94
303.494	55.99
303.71	54.5
303.927	63.76
304.144	84.86
304.36	123.19
304.577	95.6
304.793	142.07
305.01	174.47
305.227	200.38
305.443	261.1
305.66	335.53
305.876	430.5
306.093	550.64
306.309	730.03
306.526	923.67
306.742	1062.7
306.958	1277.26
307.175	1454.43
307.391	1682.87
307.608	1916.13
307.824	2213.26
308.04	2410.79
308.257	2526.31
308.473	2473.73
308.689	2499.28
308.905	2553.34
309.122	2923.77
309.338	3479.71
309.554	4562.88
309.77	5512.58
309.986	6285.11
310.203	6251.23
310.419	6065.18
310.635	5394.47
310.851	4812.24
311.067	4686.54
311.283	5269.51
311.499	6375.45
311.715	8110.45
311.931	10371.4
312.147	12576.06
312.363	13525.57
312.579	13082.75
312.795	11581.56
313.011	9088.66
313.227	5975.02
313.443	3724.81
313.659	2177.53
313.875	1127.31
314.091	570.27
314.307	373.85
314.523	259.25
314.738	258.14
314.954	204.46
315.17	210.94
315.386	194.64
315.602	182.8
315.817	148.36
316.033	158.73
316.249	145.59
316.465	166.14
316.68	162.06
316.896	173.73
317.112	130.59
317.327	142.25
317.543	128.55
317.758	130.22
317.974	112.26
318.19	122.63
318.405	103.38
318.621	148.92
318.836	114.11
319.052	116.89
319.267	112.82
319.483	120.04
319.698	111.71
319.914	123.93
320.129	109.49
320.344	133.92
320.56	138.92
320.775	181.87
320.99	192.05
321.206	246.67
321.421	317.01
321.636	412.54
321.852	502.51
322.067	680.79
322.282	914.97
322.498	1222.28
322.713	1490.71
322.928	1896.14
323.143	2164.39
323.358	2302.68
323.574	2289.72
323.789	2246.58
324.004	2038.87
324.219	2014.62
324.434	2159.76
324.649	2424.49
324.864	2575
325.079	2635.53
325.294	2470.21
325.509	2265.09
325.724	1806.17
325.939	1438.14
326.154	1151.93
326.369	1061.4
326.584	968.66
326.799	1052.89
327.014	1231.17
327.229	1319.29
327.444	1409.44
327.659	1390
327.873	1325.76
328.088	1162.3
328.303	991.61
328.518	864.25
328.733	807.04
328.947	846.47
329.162	904.05
329.377	1043.26
329.591	1253.57
329.806	1481.83
330.021	1789.32
330.235	2059.05
330.45	2200.86
330.665	2427.27
330.879	2553.89
331.094	2698.66
331.309	3088.35
331.523	3787.2
331.738	4774.29
331.952	6401.74
332.167	8693.97
332.381	11521.58
332.596	15295.38
332.81	20005.73
333.025	25572.65
333.239	32446.2
333.453	37503.84
333.668	38936.9
333.882	38327.65
334.097	34383.91
334.311	26925
334.525	18908.67
334.74	12217.29
334.954	7506.75
335.168	4137.27
335.382	2103.11
335.597	1009.94
335.811	631.17
336.025	462.34
336.239	423.65
336.453	365.89
336.668	322.57
336.882	293.5
337.096	302.39
337.31	279.43
337.524	280.91
337.738	271.1
337.952	245.18
338.166	240.74
338.38	265.18
338.594	225.93
338.808	222.04
339.022	231.3
339.236	228.15
339.45	230.74
339.664	264.07
339.878	229.82
340.092	251.48
340.306	263.33
340.52	286.47
340.734	287.58
340.948	322.01
341.161	324.6
341.375	354.22
341.589	343.49
341.803	366.81
342.017	325.34
342.23	315.53
342.444	300.91
342.658	316.83
342.871	330.16
343.085	357.37
343.299	379.96
343.512	406.43
343.726	420.5
343.94	487.7
344.153	471.96
344.367	510.84
344.58	500.47
344.794	600.63
345.008	700.96
345.221	917.19
345.435	1118.79
345.648	1372.05
345.862	1706.57
346.075	2148.28
346.288	2507.79
346.502	2797.33
346.715	2766.6
346.929	2659.04
347.142	2397.46
347.355	2089.41
347.569	1970.37
347.782	1993.33
347.995	2054.05
348.209	2356.73
348.422	2711.62
348.635	3234.97
348.848	3988.43
349.062	5005.15
349.275	6069.81
349.488	7460.84
349.701	9345.06
349.914	11398.1
350.128	13419.68
350.341	14262.37
350.554	14120.01
350.767	12925.39
350.98	10816.44
351.193	8842.81
351.406	7090.04
351.619	5850.25
351.832	5153.62
352.045	4969.23
352.258	5284.69
352.471	6158.67
352.684	7605.24
352.897	9538.7
353.11	12099.55
353.323	15469.03
353.536	18879.6
353.748	23974.83
353.961	28640.75
354.174	31851.57
354.387	32010.78
354.6	30181.92
354.813	25058
355.025	18854.06
355.238	13433.75
355.451	9230.83
355.664	5783.05
355.876	3385.29
356.089	1827.83
356.302	1011.24
356.514	620.62
356.727	475.48
356.94	372
357.152	377.92
357.365	314.61
357.577	330.9
357.79	296.09
358.002	321.83
358.215	303.87
358.427	322.38
358.64	327.01
358.852	387.55
359.065	391.8
359.277	435.31
359.49	470.11
359.702	600.44
359.915	644.87
360.127	785.38
360.339	901.27
360.552	1076.96
360.764	1125.09
360.976	1111.57
361.189	1098.24
361.401	1013.27
361.613	919.23
361.825	825.55
362.038	792.6
362.25	877.2
362.462	980.13
362.674	1193.21
362.886	1440.73
363.099	1728.41
363.311	2188.27
363.523	2543.71
363.735	2709.4
363.947	2720.88
364.159	2595.17
364.371	2189.19
364.583	1758.4
364.795	1466.83
365.007	1209.51
365.219	1103.06
365.431	998.09
365.643	1046.04
365.855	1161.74
366.067	1465.91
366.279	1910.39
366.491	2483.17
366.703	3094.27
366.914	3870.51
367.126	4801.32
367.338	5777.12
367.55	6385.08
367.762	6518.74
367.974	6166.44
368.185	5402.43
368.397	4199.29
368.609	3348.08
368.82	2657.75
369.032	2160.5
369.244	1824.49
369.456	1685.28
369.667	1686.95
369.879	1957.23
370.09	2234.55
370.302	2813.44
370.514	3331.79
370.725	4097.84
370.937	4924.62
371.148	6053.7
371.36	7345.88
371.571	8905.75
371.783	10851.43
371.994	12078.81
372.206	12425.55
372.417	11666.54
372.629	10386.21
372.84	8071.2
373.051	5933.92
373.263	4333.88
373.474	3161.66
373.685	2226.96
373.897	1606.97
374.108	1329.1
374.319	1234.13
374.531	1376.12
374.742	1534.96
374.953	1911.87
375.164	2303.23
375.375	2829.36
375.587	3431.94
375.798	4264.09
376.009	5172.68
376.22	6381.56
376.431	7600.24
376.642	9478.9
376.853	11032.3
377.065	11787.61
377.276	11696.53
377.487	10716.1
377.698	8673.6
377.909	6656.29
378.12	4839.64
378.331	3485.26
378.542	2418.93
378.753	1552.73
378.964	989.95
379.174	646.35
379.385	432.16
379.596	443.08
379.807	404.39
380.018	452.53
380.229	477.52
380.44	537.31
380.65	591.37
380.861	731.88
381.072	792.6
381.283	971.8
381.493	1149.34
381.704	1379.82
381.915	1601.6
382.126	1849.86
382.336	1912.24
382.547	1950.94
382.757	1787.1
382.968	1587.35
383.179	1327.99
383.389	1170.26
383.6	1046.59
383.81	983.28
384.021	914.41
384.231	969.4
384.442	1075.47
384.652	1326.32
384.863	1598.83
385.073	1837.64
385.284	2159.76
385.494	2500.76
385.705	2944.51
385.915	3235.53
386.125	3404.36
386.336	3283.1
386.546	3032.81
386.756	2659.97
386.967	2224.55
387.177	1927.79
387.387	1750.44
387.598	1638.63
387.808	1631.59
388.018	1681.39
388.228	1615.67
388.439	1599.2
388.649	1505.15
388.859	1404.26
389.069	1404.81
389.279	1541.25
389.489	1663.62
389.699	1938.9
389.909	2205.67
390.12	2638.12
390.33	3134.82
390.54	3873.47
390.75	4178.93
390.96	4368.13
391.17	4226.32
391.38	3791.27
391.59	3047.99
391.799	2384.32
392.009	1879.66
392.219	1405
392.429	1058.63
392.639	831.85
392.849	663.94
393.059	576.74
393.269	545.83
393.478	593.22
393.688	683.56
393.898	768.17
394.108	907.75
394.317	1095.84
394.527	1280.22
394.737	1525.52
394.947	1806.17
395.156	2104.41
395.366	2521.68
395.576	2900.63
395.785	3451.57
395.995	4216.14
396.204	4878.7
396.414	5072.9
396.624	5066.24
396.833	4596.2
397.043	3824.23
397.252	3036.51
397.462	2263.24
397.671	1753.04
397.881	1256.53
398.09	881.28
398.299	605.25
398.509	456.78
398.718	311.64
398.928	304.61
399.137	295.54
399.346	331.27
399.556	353.11
399.765	433.64
399.974	457.89
400.184	578.78
400.393	663.38
400.602	825.92
400.811	925.52
401.021	1124.53
401.23	1294.48
401.439	1532.18
401.648	1787.47
401.857	2135.69
402.066	2554.08
402.276	3056.51
402.485	3179.99
402.694	3266.26
402.903	3066.51
403.112	2678.11
403.321	2111.44
403.53	1702.13
403.739	1320.58
403.948	1088.25
404.157	874.98
404.366	743.91
404.575	705.04
404.784	690.04
404.993	734.84
405.202	846.47
405.411	981.06
405.619	1174.33
405.828	1292.81
406.037	1406.85
406.246	1363.9
406.455	1286.7
406.663	1067.14
406.872	886.28
407.081	724.11
407.29	626.36
407.498	479.92
407.707	406.8
407.916	352.19
408.124	342.19
408.333	320.9
408.542	351.26
408.75	367.74
408.959	466.78
409.168	556.2
409.376	715.96
409.585	798.16
409.793	957.55
410.002	1024.94
410.21	1303.36
410.419	1532.74
410.627	1737.67
410.836	1765.44
411.044	1762.66
411.253	1564.21
411.461	1275.97
411.669	1020.31
411.878	843.33
412.086	653.02
412.294	548.79
412.503	436.05
412.711	382.18
412.919	307.76
413.128	325.34
413.336	287.02
413.544	358.85
413.752	338.3
413.961	374.22
414.169	406.98
414.377	488.81
414.585	546.38
414.793	630.06
415.001	758.17
415.209	875.35
415.418	981.25
415.626	1138.6
415.834	1278
416.042	1464.79
416.25	1730.27
416.458	1985.74
416.666	2076.27
416.874	2112.18
417.082	1995.74
417.29	1737.49
417.498	1404.07
417.706	1145.27
417.913	923.49
418.121	776.5
418.329	568.04
418.537	493.44
418.745	381.81
418.953	347.56
419.161	312.2
419.368	297.57
419.576	276.1
419.784	352
419.992	393.1
420.199	430.5
420.407	474.93
420.615	502.51
420.822	510.28
421.03	531.94
421.238	558.6
421.445	606.74
421.653	626.91
421.861	729.1
422.068	793.34
422.276	886.83
422.483	1022.16
422.691	1175.63
422.898	1297.81
423.106	1574.94
423.313	1813.94
423.521	1902.99
423.728	1899.66
423.936	1815.98
424.143	1611.41
424.35	1400.56
424.558	1174.15
424.765	979.39
424.973	787.23
425.18	598.22
425.387	437.53
425.594	322.94
425.802	276.84
426.009	195.01
426.216	123.93
426.424	129.85
426.631	111.52
426.838	97.45
427.045	94.68
427.252	94.68
427.459	114.49
427.667	122.26
427.874	147.81
428.081	163.91
428.288	187.05
428.495	229.82
428.702	249.81
428.909	291.84
429.116	303.87
429.323	382.18
429.53	404.21
429.737	481.96
429.944	562.68
430.151	616.18
430.358	712.07
430.565	871.28
430.772	982.54
430.979	1117.87
431.185	1175.44
431.392	1179.15
431.599	1155.63
431.806	1136.57
432.013	1105.28
432.219	1045.85
432.426	982.17
432.633	877.02
432.84	730.58
433.046	583.78
433.253	439.94
433.46	368.85
433.666	276.29
433.873	232.78
434.08	180.58
434.286	168.17
434.493	126.89
434.7	118
434.906	107.64
435.113	93.2
435.319	107.64
435.526	103.01
435.732	152.44
435.939	186.31
436.145	175.95
436.352	252.96
436.558	259.81
436.765	332.75
436.971	364.41
437.177	417.17
437.384	479.37
437.59	556.94
437.796	657.09
438.003	756.13
438.209	792.97
438.415	797.79
438.622	750.02
438.828	627.28
439.034	529.54
439.24	446.6
439.447	359.78
439.653	278.51
439.859	258.88
440.065	197.98
440.271	139.29
440.477	126.15
440.683	106.34
440.89	123.56
441.096	121.7
441.302	162.8
441.508	133
441.714	142.62
441.92	138.92
442.126	152.62
442.332	158.17
442.538	163.54
442.744	184.28
442.95	219.27
443.156	225.01
443.361	292.39
443.567	276.1
443.773	302.76
443.979	334.6
444.185	356.63
444.391	393.28
444.596	429.2
444.802	513.25
445.008	570.08
445.214	663.01
445.42	748.91
445.625	763.17
445.831	751.5
446.037	690.04
446.242	573.78
446.448	459
446.654	403.28
446.859	316.64
447.065	270.92
447.27	185.39
447.476	174.47
447.682	137.81
447.887	114.49
448.093	94.31
448.298	89.68
448.504	87.83
448.709	107.27
448.915	87.27
449.12	111.71
449.325	95.97
449.531	97.64
449.736	85.05
449.942	97.64
450.147	94.68
450.352	99.67
450.558	96.71
450.763	149.84
450.968	139.66
451.174	142.07
451.379	125.78
451.584	165.95
451.789	206.49
451.995	208.9
452.2	227.6
452.405	260.92
452.61	286.1
452.815	341.82
453.02	342.56
453.226	378.1
453.431	405.32
453.636	501.58
453.841	497.51
454.046	559.9
454.251	513.25
454.456	497.51
454.661	421.05
454.866	343.12
455.071	277.21
455.276	248.52
455.481	201.86
455.686	187.98
455.891	142.99
456.095	115.97
456.3	82.27
456.505	117.63
456.71	112.45
456.915	110.04
457.12	112.45
457.324	102.82
457.529	80.24
457.734	95.42
457.939	107.27
458.144	109.12
458.348	96.53
458.553	103.19
458.758	98.38
458.962	140.77
459.167	119.67
459.372	153.92
459.576	168.91
459.781	176.69
459.985	192.42
460.19	267.4
460.394	278.88
460.599	323.31
460.803	321.27
461.008	379.4
461.212	437.53
461.417	472.52
461.621	465.48
461.826	471.41
462.03	427.9
462.235	424.76
462.439	375.88
462.643	357.74
462.848	337.01
463.052	359.59
463.256	320.72
463.461	282.76
463.665	248.7
463.869	239.63
464.074	176.32
464.278	174.84
464.482	134.11
