Data from FLMT087451__11__13-56-59-492.txt Node

Date: Tue Jun 04 13:56:59 JST 2024
User: power
Spectrometer: FLMT08745
Trigger mode: 0
Integration Time (sec): 9.600000E-2
Scans to average: 11
Electric dark correction enabled: true
Nonlinearity correction enabled: false
Boxcar width: 0
XAxis mode: Wavelengths
Number of Pixels in Spectrum: 3648
>>>>>Begin Spectral Data<<<<<
194.923	-153.32
195.148	-153.32
195.372	-153.32
195.597	-152.39
195.821	-145.35
196.046	35.88
196.271	-23.36
196.495	-49.46
196.72	10.34
196.944	-25.39
197.169	-0.77
197.393	45.7
197.618	9.97
197.842	18.48
198.067	-6.33
198.291	-46.87
198.516	31.81
198.74	-47.98
198.964	50.32
199.189	13.85
199.413	74.39
199.637	30.14
199.862	14.78
200.086	15.33
200.31	88.27
200.535	-6.7
200.759	113.08
200.983	-30.76
201.207	-22.8
201.432	5.15
201.656	58.1
201.88	-0.22
202.104	-5.4
202.328	40.88
202.552	53.84
202.777	31.81
203.001	33.11
203.225	-16.14
203.449	-52.24
203.673	42.73
203.897	17.19
204.121	-13.55
204.345	49.4
204.569	-13.92
204.793	12
205.017	9.41
205.241	57.36
205.465	-18.54
205.689	-7.81
205.912	4.97
206.136	-26.5
206.36	-10.58
206.584	33.29
206.808	-36.69
207.032	39.03
207.255	52.73
207.479	62.17
207.703	-6.51
207.927	20.33
208.15	-27.43
208.374	14.04
208.598	-42.24
208.822	1.82
209.045	-23.54
209.269	19.59
209.492	94.38
209.716	73.28
209.94	48.84
210.163	63.84
210.387	84.94
210.61	48.66
210.834	-5.77
211.057	7.93
211.281	-34.65
211.504	-2.07
211.728	-7.62
211.951	80.31
212.175	90.87
212.398	1.45
212.622	11.45
212.845	90.5
213.068	-9.66
213.292	32
213.515	-28.17
213.738	3.3
213.962	4.6
214.185	-23.36
214.408	14.41
214.631	60.88
214.855	19.96
215.078	0.52
215.301	20.15
215.524	4.23
215.747	34.77
215.971	2.56
216.194	12.19
216.417	22.55
216.64	30.33
216.863	324.5
217.086	37.73
217.309	-12.8
217.532	45.51
217.755	2.19
217.978	32.92
218.201	70.13
218.424	64.95
218.647	9.6
218.87	0.34
219.093	61.8
219.316	62.54
219.539	8.86
219.762	10.71
219.985	19.41
220.207	-64.82
220.43	-4.29
220.653	9.41
220.876	11.63
221.099	67.17
221.321	13.67
221.544	4.41
221.767	52.73
221.99	-12.99
222.212	16.82
222.435	36.81
222.658	79.57
222.88	-15.4
223.103	86.05
223.326	-22.8
223.548	26.26
223.771	4.6
223.993	-2.44
224.216	-32.61
224.438	23.3
224.661	5.15
224.883	52.36
225.106	91.79
225.328	3.12
225.551	42.92
225.773	-9.1
225.996	16.63
226.218	19.41
226.44	58.65
226.663	43.29
226.885	5.15
227.108	44.95
227.33	39.22
227.552	29.22
227.774	7.37
227.997	29.59
228.219	22
228.441	44.95
228.663	86.98
228.886	31.07
229.108	14.41
229.33	14.22
229.552	-43.54
229.774	46.81
229.996	-0.03
230.219	62.36
230.441	13.11
230.663	34.96
230.885	1.27
231.107	7.19
231.329	21.44
231.551	57.73
231.773	-3.55
231.995	7.74
232.217	-5.21
232.439	17.74
232.661	7.19
232.883	24.41
233.105	19.04
233.326	6.45
233.548	61.8
233.77	12.37
233.992	58.65
234.214	10.15
234.436	-34.65
234.657	10.52
234.879	87.16
235.101	-41.87
235.323	1.08
235.544	14.59
235.766	29.59
235.988	58.1
236.21	60.51
236.431	70.13
236.653	51.06
236.874	71.43
237.096	9.23
237.318	-48.35
237.539	32.37
237.761	31.07
237.982	5.34
238.204	98.46
238.425	-6.33
238.647	46.99
238.868	-9.66
239.09	30.89
239.311	-37.06
239.533	31.07
239.754	66.98
239.975	-12.06
240.197	-5.03
240.418	9.23
240.64	48.84
240.861	16.26
241.082	44.03
241.304	32.37
241.525	4.78
241.746	12
241.967	-34.65
242.189	7.93
242.41	55.69
242.631	119.93
242.852	-10.4
243.073	94.2
243.294	5.52
243.516	33.48
243.737	14.78
243.958	-5.03
244.179	18.85
244.4	104.38
244.621	-6.14
244.842	8.67
245.063	61.25
245.284	36.99
245.505	47.55
245.726	36.81
245.947	50.32
246.168	0.15
246.389	8.48
246.61	72.35
246.831	36.62
247.052	44.21
247.272	5.15
247.493	7.93
247.714	61.99
247.935	-35.95
248.156	51.06
248.376	65.69
248.597	67.54
248.818	21.26
249.039	-4.66
249.259	0.34
249.48	-45.57
249.701	44.21
249.921	-27.24
250.142	-0.96
250.363	39.96
250.583	18.48
250.804	47.36
251.025	91.79
251.245	54.95
251.466	61.25
251.686	30.89
251.907	-27.98
252.127	42.73
252.348	43.47
252.568	11.08
252.789	45.88
253.009	43.84
253.23	101.79
253.45	28.66
253.67	39.03
253.891	-21.14
254.111	81.61
254.331	67.17
254.552	15.52
254.772	51.25
254.992	44.58
255.213	-0.22
255.433	60.51
255.653	-12.06
255.873	32.55
256.093	44.58
256.314	24.96
256.534	-36.13
256.754	96.98
256.974	-4.1
257.194	5.15
257.414	6.08
257.634	49.03
257.855	18.48
258.075	-9.29
258.295	0.15
258.515	2.93
258.735	57.36
258.955	60.32
259.175	27.37
259.395	39.59
259.615	65.5
259.835	29.96
260.054	4.6
260.274	55.51
260.494	35.14
260.714	107.16
260.934	39.59
261.154	28.85
261.374	19.41
261.593	25.33
261.813	-42.79
262.033	12.37
262.253	40.14
262.472	30.14
262.692	21.44
262.912	49.4
263.132	36.25
263.351	74.02
263.571	94.01
263.791	47.55
264.01	65.13
264.23	41.81
264.449	1.08
264.669	112.16
264.888	83.83
265.108	24.78
265.328	91.05
265.547	43.29
265.767	47.36
265.986	-22.25
266.205	70.32
266.425	29.77
266.644	61.99
266.864	-12.62
267.083	73.28
267.303	21.81
267.522	50.88
267.741	24.04
267.961	56.06
268.18	14.78
268.399	40.51
268.618	33.48
268.838	49.58
269.057	38.48
269.276	36.81
269.495	44.77
269.715	114.56
269.934	12.93
270.153	46.25
270.372	0.52
270.591	43.29
270.81	32.18
271.029	66.61
271.249	54.58
271.468	13.85
271.687	88.09
271.906	16.08
272.125	57.91
272.344	65.69
272.563	35.51
272.782	17.19
273.001	-14.66
273.22	40.88
273.439	48.47
273.657	36.62
273.876	75.69
274.095	-48.53
274.314	63.28
274.533	88.27
274.752	11.26
274.971	57.36
275.189	105.86
275.408	65.87
275.627	13.3
275.846	61.62
276.064	22.74
276.283	10.89
276.502	57.36
276.72	-20.02
276.939	33.66
277.158	-4.66
277.376	12.74
277.595	56.25
277.814	34.03
278.032	70.87
278.251	23.11
278.469	-26.87
278.688	32.55
278.906	104.75
279.125	48.47
279.343	17.37
279.562	29.4
279.78	-25.58
279.999	37.18
280.217	23.11
280.435	27.74
280.654	-19.1
280.872	80.13
281.091	24.59
281.309	49.03
281.527	83.46
281.746	50.14
281.964	13.48
282.182	47.18
282.4	59.21
282.619	120.49
282.837	99.94
283.055	8.3
283.273	17.19
283.491	32.74
283.71	37.92
283.928	38.66
284.146	23.67
284.364	21.63
284.582	36.99
284.8	57.17
285.018	22.92
285.236	-13.36
285.454	96.98
285.672	70.69
285.89	40.51
286.108	5.15
286.326	57.36
286.544	63.28
286.762	15.89
286.98	0.71
287.198	84.57
287.416	163.99
287.634	72.72
287.851	70.87
288.069	54.4
288.287	50.14
288.505	18.85
288.723	65.5
288.94	78.28
289.158	55.14
289.376	127.15
289.594	70.13
289.811	33.11
290.029	41.07
290.247	171.58
290.464	135.48
290.682	53.1
290.9	191.39
291.117	213.6
291.335	202.31
291.552	207.68
291.77	329.12
291.987	345.6
292.205	419.84
292.422	457.79
292.64	543.13
292.857	495.74
293.075	584.6
293.292	558.86
293.51	590.52
293.727	597.19
293.945	655.32
294.162	610.7
294.379	529.43
294.597	463.71
294.814	363.37
295.031	275.44
295.249	250.44
295.466	154.18
295.683	163.44
295.9	169.91
296.118	177.69
296.335	179.54
296.552	314.31
296.769	355.41
296.986	327.64
297.204	303.02
297.421	290.06
297.638	253.59
297.855	266.74
298.072	192.32
298.289	241
298.506	184.72
298.723	240.82
298.94	177.88
299.157	171.4
299.374	146.4
299.591	193.24
299.808	112.16
300.025	103.64
300.242	146.22
300.459	230.08
300.676	175.28
300.893	207.5
301.109	275.99
301.326	346.53
301.543	391.7
301.76	381.33
301.977	382.25
302.193	393.73
302.41	387.99
302.627	269.14
302.844	206.94
303.06	203.24
303.277	205.27
303.494	215.83
303.71	160.47
303.927	219.16
304.144	208.79
304.36	262.66
304.577	221.38
304.793	323.38
305.01	278.77
305.227	301.54
305.443	328.94
305.66	465.93
305.876	360.96
306.093	545.17
306.309	680.68
306.526	772.5
306.742	1000.21
306.958	1134.98
307.175	1195.14
307.391	1272.71
307.608	1528.18
307.824	1737.56
308.04	1926.21
308.257	2021.55
308.473	2155.76
308.689	2146.51
308.905	2289.98
309.122	2531.01
309.338	3037.15
309.554	3946.3
309.77	4721.24
309.986	5316.98
310.203	5371.59
310.419	5326.6
310.635	5017.44
310.851	4699.21
311.067	5095.38
311.283	6060.07
311.499	7615.69
311.715	9823.5
311.931	12757.93
312.147	15543.52
312.363	16568.01
312.579	16065.58
312.795	14252.46
313.011	11117.35
313.227	7403.72
313.443	4748.45
313.659	2807.22
313.875	1464.87
314.091	783.98
314.307	500.74
314.523	385.59
314.738	325.61
314.954	348.56
315.17	267.29
315.386	296.17
315.602	227.67
315.817	251.56
316.033	253.59
316.249	258.78
316.465	266.18
316.68	241
316.896	286.91
317.112	259.89
317.327	275.25
317.543	392.81
317.758	307.83
317.974	316.72
318.19	340.6
318.405	277.1
318.621	298.76
318.836	274.88
319.052	268.22
319.267	327.64
319.483	306.91
319.698	403.17
319.914	401.51
320.129	397.06
320.344	477.04
320.56	407.06
320.775	439.46
320.99	338.75
321.206	350.41
321.421	348.75
321.636	328.01
321.852	345.78
322.067	360.04
322.282	362.45
322.498	449.64
322.713	535.72
322.928	707.89
323.143	681.6
323.358	719.92
323.574	846.55
323.789	853.4
324.004	940.78
324.219	1110.91
324.434	1390.45
324.649	1555.21
324.864	1744.41
325.079	1779.59
325.294	1696.83
325.509	1595.94
325.724	1503.75
325.939	1336.21
326.154	1260.68
326.369	1329.91
326.584	1197.18
326.799	1182.74
327.014	1308.07
327.229	1279.38
327.444	1323.44
327.659	1297.33
327.873	1270.86
328.088	1205.7
328.303	1109.43
328.518	1072.22
328.733	1092.4
328.947	1227.73
329.162	1270.49
329.377	1435.99
329.591	1630.56
329.806	1835.31
330.021	2112.81
330.235	2403.65
330.45	2548.78
330.665	2675.78
330.879	2854.06
331.094	3080.65
331.309	3385.37
331.523	4067.37
331.738	5041.32
331.952	6639.7
332.167	8999.69
332.381	11878.03
332.596	16089.28
332.81	21006.22
333.025	27108.54
333.239	34574.67
333.453	40503.33
333.668	43006.42
333.882	41750.53
334.097	37286.58
334.311	29248.04
334.525	21048.62
334.74	13889.24
334.954	8683.86
335.168	5171.28
335.382	2835.92
335.597	1669.62
335.811	1154.23
336.025	1080.55
336.239	873.39
336.453	844.33
336.668	738.44
336.882	582.56
337.096	621.62
337.31	597.19
337.524	668.64
337.738	835.81
337.952	983.91
338.166	1109.99
338.38	1158.86
338.594	1185.89
338.808	1006.31
339.022	957.26
339.236	787.87
339.45	696.04
339.664	717.52
339.878	638.1
340.092	629.58
340.306	640.32
340.52	749.54
340.734	805.27
340.948	842.85
341.161	882.28
341.375	955.96
341.589	989.47
341.803	1053.89
342.017	1130.16
342.23	1307.88
342.444	1545.96
342.658	1655.92
342.871	1794.21
343.085	1708.5
343.299	1554.1
343.512	1366.2
343.726	1150.53
343.94	1107.39
344.153	964.48
344.367	885.8
344.58	773.24
344.794	768.43
345.008	793.23
345.221	898.94
345.435	1075.37
345.648	1241.42
345.862	1447.84
346.075	1679.06
346.288	1873.45
346.502	2077.64
346.715	2044.69
346.929	1913.8
347.142	1914.91
347.355	1842.71
347.569	1942.13
347.782	2118.55
347.995	2344.41
348.209	2653.57
348.422	3062.69
348.635	3619.37
348.848	4383.38
349.062	5229.78
349.275	6363.31
349.488	7548.86
349.701	9092.99
349.914	10637.87
350.128	12199.04
350.341	12883.08
350.554	12715.35
350.767	11834.89
350.98	10151.91
351.193	8612.77
351.406	7150.46
351.619	6217.61
351.832	5655.39
352.045	5513.21
352.258	5872.72
352.471	6871.48
352.684	8426.17
352.897	10631.94
353.11	13246.85
353.323	16968.07
353.536	20461.21
353.748	25918.36
353.961	30792.73
354.174	34820.52
354.387	36081.41
354.6	34910.67
354.813	29984.28
355.025	23981.76
355.238	18133.44
355.451	13194.83
355.664	9332.73
355.876	6522.89
356.089	4505.57
356.302	3300.77
356.514	2614.5
356.727	2175.57
356.94	2015.81
357.152	1905.1
357.365	1857.71
357.577	1695.72
357.79	1493.2
358.002	1301.22
358.215	1261.6
358.427	1262.16
358.64	1233.83
358.852	1103.51
359.065	1011.13
359.277	893.02
359.49	838.96
359.702	755.84
359.915	592.37
360.127	524.25
360.339	494.63
360.552	495.92
360.764	526.28
360.976	540.35
361.189	483.52
361.401	574.97
361.613	582.56
361.825	489.07
362.038	565.16
362.25	625.51
362.462	658.83
362.674	720.11
362.886	852.84
363.099	880.43
363.311	1006.31
363.523	1073.33
363.735	1089.99
363.947	1033.53
364.159	1062.41
364.371	946.52
364.583	828.96
364.795	766.39
365.007	689.93
365.219	646.24
365.431	656.98
365.643	681.42
365.855	741.4
366.067	829.89
366.279	1028.16
366.491	1265.86
366.703	1590.02
366.914	1938.61
367.126	2338.67
367.338	2822.96
367.55	3093.43
367.762	3196.17
367.974	3009.38
368.185	2709.29
368.397	2297.01
368.609	1940.28
368.82	1632.6
369.032	1460.06
369.244	1299.37
369.456	1347.5
369.667	1411.37
369.879	1647.78
370.09	1842.53
370.302	2258.51
370.514	2759.46
370.725	3331.13
370.937	3981.11
371.148	4860.08
371.36	5952.14
371.571	7234.33
371.783	8677.38
371.994	9685.02
372.206	9945.68
372.417	9604.31
372.629	8544.09
372.84	6696.9
373.051	5045.95
373.263	3854.48
373.474	2876.09
373.685	2065.42
373.897	1610.94
374.108	1437.29
374.319	1302.7
374.531	1427.66
374.742	1656.85
374.953	1922.69
375.164	2245.73
375.375	2825.92
375.587	3421.28
375.798	4204.74
376.009	5099.45
376.22	6304.07
376.431	7503.5
376.642	9290.71
376.853	10930.92
377.065	11640.88
377.276	11621.26
377.487	10810.41
377.698	8864.73
377.909	6970.71
378.12	5224.41
378.331	3862.44
378.542	2751.5
378.753	1891.96
378.964	1357.31
379.174	1015.2
379.385	834.52
379.596	762.5
379.807	789.53
380.018	771.39
380.229	873.21
380.44	952.26
380.65	875.8
380.861	964.48
381.072	1000.95
381.283	1112.95
381.493	1200.14
381.704	1304.55
381.915	1342.32
382.126	1441.92
382.336	1659.07
382.547	1722.57
382.757	1766.81
382.968	1821.79
383.179	1934.72
383.389	2174.65
383.6	2281.83
383.81	2520.09
384.021	2854.24
384.231	3123.6
384.442	3614.93
384.652	4229.91
384.863	5113.15
385.073	5759.06
385.284	6700.05
385.494	7718.8
385.705	8836.22
385.915	10230.59
386.125	12571.7
386.336	15039.24
386.546	18337.26
386.756	21982.21
386.967	25443.51
387.177	28339.81
387.387	32419.06
387.598	38959.57
387.808	46733.19
388.018	51170.85
388.228	51812.5
388.439	50691.19
388.649	44273.42
388.859	34555.79
389.069	26626.65
389.279	20208.15
389.489	14518.85
389.699	9788.7
389.909	6372.56
390.12	4368.76
390.33	3223.38
390.54	2798.89
390.75	2692.81
390.96	2588.22
391.17	2412.53
391.38	2208.34
391.59	1763.29
391.799	1511.52
392.009	1299
392.219	1057.04
392.429	885.61
392.639	798.97
392.849	687.53
393.059	761.58
393.269	734.55
393.478	734.92
393.688	846.37
393.898	888.2
394.108	904.5
394.317	1022.98
394.527	1118.87
394.737	1345.1
394.947	1523.56
395.156	1743.86
395.366	2125.4
395.576	2444.19
395.785	2861.09
395.995	3520.51
396.204	4081.63
396.414	4204.37
396.624	4274.16
396.833	3911.5
397.043	3292.07
397.252	2688.18
397.462	2104.48
397.671	1587.61
397.881	1129.61
398.09	859.69
398.299	594.22
398.509	476.11
398.718	399.47
398.928	390.59
399.137	418.35
399.346	389.84
399.556	456.86
399.765	443.16
399.974	508.88
400.184	637.73
400.393	746.21
400.602	867.1
400.811	1025.38
401.021	1174.41
401.23	1409.33
401.439	1585.94
401.648	1796.43
401.857	2145.77
402.066	2518.61
402.276	2965.5
402.485	3184.69
402.694	3226.35
402.903	3073.06
403.112	2610.62
403.321	2119.29
403.53	1704.24
403.739	1243.65
403.948	1003.72
404.157	776.39
404.366	551.64
404.575	392.62
404.784	391.88
404.993	336.71
405.202	392.25
405.411	400.58
405.619	334.86
405.828	381.88
406.037	423.54
406.246	357.26
406.455	356.15
406.663	399.84
406.872	308.2
407.081	322.83
407.29	365.22
407.498	334.12
407.707	304.5
407.916	304.69
408.124	366.89
408.333	438.72
408.542	296.54
408.75	345.78
408.959	362.08
409.168	428.17
409.376	410.76
409.585	469.63
409.793	590.15
410.002	520.73
410.21	650.87
410.419	663.46
410.627	685.31
410.836	705.48
411.044	723.26
411.253	712.33
411.461	596.63
411.669	616.81
411.878	584.04
412.086	451.31
412.294	486.67
412.503	405.95
412.711	435.94
412.919	436.31
413.128	420.95
413.336	395.03
413.544	509.44
413.752	480.74
413.961	507.77
414.169	433.72
414.377	534.06
414.585	667.53
414.793	585.89
415.001	628.66
415.209	716.59
415.418	751.4
415.626	879.5
415.834	903.75
416.042	1018.53
416.25	1205.33
416.458	1344.17
416.666	1441.18
416.874	1555.58
417.082	1505.78
417.29	1350.46
417.498	1222.54
417.706	1097.58
417.913	1072.77
418.121	1025.01
418.329	1070.18
418.537	985.4
418.745	1063.52
418.953	1206.25
419.161	1379.34
419.368	1429.51
419.576	1518.93
419.784	1816.98
419.992	2224.81
420.199	2564.15
420.407	2582.66
420.615	2797.04
420.822	2707.62
421.03	2547.12
421.238	2473.81
421.445	2620.24
421.653	2838.51
421.861	3561.05
422.068	4229.91
422.276	5014.85
422.483	5729.99
422.691	6547.32
422.898	7272.83
423.106	7927.44
423.313	8987.47
423.521	9540.44
423.728	10265.21
423.936	11842.3
424.143	14361.49
424.35	16362.52
424.558	16715.74
424.765	16642.8
424.973	14880.77
425.18	12224.4
425.387	10068.05
425.594	8108.49
425.802	6579.72
426.009	5057.61
426.216	3738.78
426.424	2681.89
426.631	1877.7
426.838	1230.69
427.045	832.67
427.252	647.17
427.459	516.66
427.667	457.6
427.874	323.01
428.081	341.53
428.288	333.57
428.495	282.29
428.702	400.95
428.909	296.54
429.116	328.2
429.323	403.73
429.53	410.21
429.737	427.05
429.944	506.66
430.151	587.93
430.358	756.58
430.565	827.67
430.772	968.55
430.979	1105.36
431.185	1105.36
431.392	1083.7
431.599	1137.94
431.806	957.63
432.013	850.25
432.219	797.86
432.426	707.34
432.633	606.07
432.84	481.67
433.046	410.21
433.253	320.79
433.46	318.39
433.666	221.01
433.873	248.96
434.08	242.11
434.286	236.56
434.493	269.88
434.7	200.65
434.906	179.91
435.113	160.29
435.319	274.7
435.526	151.4
435.732	231.75
435.939	186.21
436.145	130.67
436.352	219.53
436.558	213.05
436.765	302.65
436.971	226.56
437.177	295.25
437.384	242.85
437.59	262.29
437.796	321.9
438.003	312.09
438.209	402.06
438.415	332.46
438.622	360.22
438.828	362.08
439.034	285.25
439.24	225.08
439.447	259.52
439.653	223.23
439.859	209.16
440.065	243.22
440.271	183.61
440.477	252.85
440.683	253.22
440.89	225.82
441.096	284.88
441.302	265.25
441.508	299.87
441.714	200.28
441.92	206.75
442.126	216.75
442.332	290.99
442.538	278.77
442.744	295.62
442.95	361.15
443.156	336.9
443.361	393.55
443.567	333.75
443.773	385.77
443.979	425.39
444.185	360.41
444.391	314.31
444.596	355.78
444.802	367.26
445.008	536.46
445.214	446.12
445.42	562.75
445.625	505.92
445.831	561.83
446.037	573.86
446.242	515.55
446.448	413.54
446.654	424.83
446.859	348.01
447.065	325.98
447.27	318.76
447.476	286.73
447.682	215.83
447.887	292.65
448.093	302.09
448.298	252.11
448.504	287.28
448.709	246.19
448.915	303.21
449.12	217.68
449.325	300.06
449.531	261.37
449.736	292.1
449.942	252.85
450.147	315.61
450.352	350.04
450.558	305.43
450.763	323.94
450.968	380.03
451.174	312.28
451.379	326.35
451.584	360.78
451.789	373.74
451.995	393.36
452.2	364.11
452.405	341.16
452.61	405.21
452.815	470.56
453.02	412.24
453.226	395.03
453.431	522.02
453.636	522.02
453.841	567.01
454.046	597.19
454.251	571.64
454.456	564.42
454.661	499.99
454.866	436.31
455.071	430.2
455.276	393.73
455.481	356.52
455.686	320.79
455.891	322.64
456.095	324.68
456.3	327.64
456.505	307.28
456.71	454.27
456.915	422.43
457.12	398.36
457.324	325.98
457.529	354.3
457.734	387.44
457.939	310.24
458.144	314.13
458.348	279.32
458.553	363.19
458.758	287.66
458.962	317.65
459.167	363.37
459.372	434.09
459.576	508.14
459.781	470.56
459.985	514.06
460.19	568.49
460.394	570.9
460.599	644.21
