Data from FLMT087451__22__14-13-22-506.txt Node

Date: Tue Jun 04 14:13:22 JST 2024
User: power
Spectrometer: FLMT08745
Trigger mode: 0
Integration Time (sec): 2.000000E-2
Scans to average: 11
Electric dark correction enabled: true
Nonlinearity correction enabled: false
Boxcar width: 0
XAxis mode: Wavelengths
Number of Pixels in Spectrum: 3648
>>>>>Begin Spectral Data<<<<<
194.923	-49.49
195.148	-49.49
195.372	-49.49
195.597	-37.27
195.821	-13.02
196.046	-0.99
196.271	-3.58
196.495	-1.91
196.72	7.34
196.944	-5.25
197.169	-1.54
197.393	6.6
197.618	-5.43
197.842	-4.32
198.067	13.45
198.291	-4.69
198.516	0.31
198.74	-16.91
198.964	21.78
199.189	0.49
199.413	31.22
199.637	20.3
199.862	-18.02
200.086	3.46
200.31	41.04
200.535	19.01
200.759	31.04
200.983	-5.8
201.207	4.57
201.432	2.34
201.656	8.45
201.88	14.38
202.104	-6.91
202.328	11.23
202.552	28.45
202.777	-3.02
203.001	18.08
203.225	-10.61
203.449	4.01
203.673	-6.91
203.897	-3.76
204.121	-3.76
204.345	19.75
204.569	-17.28
204.793	33.45
205.017	-8.76
205.241	28.63
205.465	-1.73
205.689	3.27
205.912	-8.58
206.136	-9.5
206.36	-20.06
206.584	25.49
206.808	-31.53
207.032	-4.69
207.255	5.12
207.479	7.9
207.703	-9.32
207.927	4.38
208.15	0.68
208.374	2.72
208.598	4.01
208.822	32.15
209.045	11.23
209.269	12.34
209.492	27.34
209.716	25.49
209.94	18.27
210.163	15.67
210.387	-13.21
210.61	30.67
210.834	-10.06
211.057	-20.98
211.281	6.05
211.504	0.12
211.728	-6.73
211.951	20.3
212.175	14.19
212.398	6.6
212.622	8.08
212.845	30.48
213.068	0.31
213.292	12.53
213.515	2.34
213.738	-8.76
213.962	11.6
214.185	-3.39
214.408	21.23
214.631	24
214.855	26.78
215.078	25.86
215.301	10.68
215.524	8.08
215.747	16.6
215.971	14.56
216.194	-0.06
216.417	6.23
216.64	15.86
216.863	68.06
217.086	-1.73
217.309	45.66
217.532	1.97
217.755	-12.47
217.978	-2.1
218.201	23.82
218.424	-10.98
218.647	-6.36
218.87	1.42
219.093	8.08
219.316	16.41
219.539	15.86
219.762	-6.73
219.985	19.93
220.207	-16.17
220.43	18.08
220.653	28.63
220.876	21.78
221.099	23.45
221.321	20.86
221.544	-7.47
221.767	21.97
221.99	-6.73
222.212	1.42
222.435	15.12
222.658	39.37
222.88	4.57
223.103	21.97
223.326	-5.43
223.548	12.16
223.771	-23.39
223.993	24.37
224.216	-24.87
224.438	6.42
224.661	0.12
224.883	29.19
225.106	42.89
225.328	-6.54
225.551	11.42
225.773	2.53
225.996	-4.5
226.218	26.78
226.44	-14.69
226.663	23.45
226.885	5.49
227.108	18.27
227.33	1.79
227.552	4.01
227.774	1.05
227.997	19.93
228.219	-7.28
228.441	16.6
228.663	9.19
228.886	26.23
229.108	4.2
229.33	10.68
229.552	1.05
229.774	17.9
229.996	8.82
230.219	21.6
230.441	-8.76
230.663	31.22
230.885	-14.13
231.107	10.31
231.329	-1.91
231.551	15.12
231.773	2.9
231.995	7.16
232.217	1.42
232.439	25.67
232.661	0.31
232.883	7.9
233.105	6.97
233.326	23.82
233.548	8.64
233.77	15.86
233.992	33.63
234.214	15.3
234.436	18.27
234.657	27.52
234.879	37.15
235.101	4.01
235.323	-2.47
235.544	3.64
235.766	12.9
235.988	11.42
236.21	-4.5
236.431	29.74
236.653	15.67
236.874	29.19
237.096	5.68
237.318	5.12
237.539	16.97
237.761	9.94
237.982	11.42
238.204	38.44
238.425	-5.8
238.647	5.68
238.868	-15.24
239.09	31.59
239.311	21.78
239.533	18.82
239.754	12.34
239.975	14.01
240.197	1.23
240.418	-11.17
240.64	13.45
240.861	-1.91
241.082	-2.47
241.304	12.16
241.525	3.64
241.746	9.38
241.967	-24.68
242.189	11.79
242.41	9.75
242.631	15.86
242.852	-8.76
243.073	21.6
243.294	9.19
243.516	6.23
243.737	12.34
243.958	0.49
244.179	3.64
244.4	36.78
244.621	-1.73
244.842	4.2
245.063	35.85
245.284	8.08
245.505	-7.1
245.726	4.75
245.947	7.71
246.168	11.42
246.389	-3.21
246.61	42.33
246.831	0.68
247.052	11.23
247.272	13.82
247.493	26.23
247.714	-0.06
247.935	-32.46
248.156	12.71
248.376	43.63
248.597	13.45
248.818	15.12
249.039	3.83
249.259	21.6
249.48	-3.21
249.701	34
249.921	-9.69
250.142	28.82
250.363	-3.39
250.583	12.34
250.804	-1.73
251.025	22.71
251.245	21.04
251.466	18.82
251.686	9.38
251.907	34.93
252.127	0.12
252.348	10.49
252.568	-1.91
252.789	0.49
253.009	20.67
253.23	28.26
253.45	6.05
253.67	36.96
253.891	-12.28
254.111	33.45
254.331	-4.13
254.552	2.16
254.772	-8.95
254.992	6.97
255.213	-6.91
255.433	16.23
255.653	-1.91
255.873	19.93
256.093	8.08
256.314	15.86
256.534	20.49
256.754	20.67
256.974	-5.25
257.194	30.85
257.414	-4.5
257.634	22.71
257.855	-8.95
258.075	-2.65
258.295	11.97
258.515	14.19
258.735	7.71
258.955	12.34
259.175	-6.54
259.395	20.49
259.615	15.86
259.835	41.59
260.054	-4.87
260.274	13.82
260.494	25.3
260.714	30.3
260.934	7.9
261.154	29
261.374	-8.95
261.593	26.04
261.813	-17.28
262.033	5.31
262.253	-6.91
262.472	20.67
262.692	2.53
262.912	6.05
263.132	19.01
263.351	37.7
263.571	18.64
263.791	2.72
264.01	18.27
264.23	19.56
264.449	5.49
264.669	29
264.888	21.41
265.108	8.08
265.328	8.27
265.547	1.97
265.767	12.71
265.986	-18.76
266.205	6.42
266.425	31.97
266.644	-0.62
266.864	10.31
267.083	-4.32
267.303	3.64
267.522	-0.06
267.741	37.52
267.961	16.6
268.18	-4.32
268.399	23.45
268.618	15.67
268.838	22.52
269.057	17.34
269.276	-7.47
269.495	13.82
269.715	16.78
269.934	19.01
270.153	21.6
270.372	9.94
270.591	27.71
270.81	21.97
271.029	0.12
271.249	27.52
271.468	24.19
271.687	6.23
271.906	13.45
272.125	41.41
272.344	28.63
272.563	21.23
272.782	0.49
273.001	12.16
273.22	6.79
273.439	21.78
273.657	18.45
273.876	7.71
274.095	-11.17
274.314	28.45
274.533	18.82
274.752	8.45
274.971	18.64
275.189	28.08
275.408	16.23
275.627	3.09
275.846	15.12
276.064	20.67
276.283	-23.2
276.502	13.27
276.72	-0.62
276.939	-5.25
277.158	6.6
277.376	29
277.595	25.49
277.814	24.75
278.032	8.64
278.251	-4.13
278.469	-16.91
278.688	18.45
278.906	11.97
279.125	33.08
279.343	6.79
279.562	19.38
279.78	0.31
279.999	20.49
280.217	18.64
280.435	34.19
280.654	11.97
280.872	19.75
281.091	-10.98
281.309	23.08
281.527	-11.54
281.746	21.78
281.964	3.09
282.182	21.6
282.4	10.49
282.619	23.82
282.837	6.05
283.055	1.97
283.273	12.16
283.491	18.82
283.71	17.71
283.928	4.57
284.146	-15.98
284.364	30.85
284.582	3.27
284.8	21.97
285.018	-9.5
285.236	-1.54
285.454	11.6
285.672	12.71
285.89	12.71
286.108	13.45
286.326	7.34
286.544	21.41
286.762	-24.31
286.98	23.26
287.198	19.19
287.416	24.19
287.634	1.97
287.851	44.18
288.069	22.52
288.287	7.34
288.505	0.31
288.723	1.42
288.94	-2.1
289.158	12.16
289.376	16.6
289.594	25.86
289.811	16.78
290.029	32.34
290.247	0.86
290.464	16.78
290.682	-34.12
290.9	22.34
291.117	11.79
291.335	30.3
291.552	4.2
291.77	16.04
291.987	0.12
292.205	0.86
292.422	-14.87
292.64	32.52
292.857	-2.28
293.075	23.63
293.292	5.12
293.51	40.48
293.727	-13.39
293.945	28.26
294.162	21.6
294.379	12.16
294.597	3.64
294.814	9.94
295.031	-0.06
295.249	40.85
295.466	-5.99
295.683	9.38
295.9	2.9
296.118	-11.35
296.335	-14.69
296.552	31.04
296.769	7.71
296.986	12.71
297.204	1.79
297.421	14.38
297.638	11.42
297.855	24.56
298.072	0.12
298.289	5.49
298.506	-17.65
298.723	31.04
298.94	2.34
299.157	13.82
299.374	8.08
299.591	17.71
299.808	-7.65
300.025	-7.84
300.242	-5.06
300.459	22.89
300.676	-11.17
300.893	8.08
301.109	-0.25
301.326	26.04
301.543	23.63
301.76	3.46
301.977	-19.13
302.193	0.49
302.41	19.19
302.627	-13.76
302.844	11.42
303.06	16.04
303.277	13.45
303.494	17.34
303.71	13.27
303.927	-2.47
304.144	0.86
304.36	26.6
304.577	16.41
304.793	31.97
305.01	-8.21
305.227	20.67
305.443	-19.5
305.66	22.52
305.876	-39.68
306.093	7.71
306.309	-0.25
306.526	-2.47
306.742	9.38
306.958	-1.54
307.175	-6.36
307.391	-14.13
307.608	-5.62
307.824	25.49
308.04	-4.13
308.257	24.93
308.473	20.3
308.689	13.82
308.905	7.71
309.122	14.19
309.338	0.49
309.554	19.01
309.77	7.53
309.986	24.37
310.203	4.2
310.419	4.2
310.635	19.01
310.851	13.27
311.067	-0.8
311.283	17.34
311.499	-0.43
311.715	11.79
311.931	15.12
312.147	15.86
312.363	-5.43
312.579	39
312.795	14.56
313.011	1.05
313.227	18.27
313.443	33.26
313.659	9.19
313.875	22.89
314.091	2.34
314.307	27.71
314.523	10.49
314.738	-1.17
314.954	-2.1
315.17	15.3
315.386	13.27
315.602	15.12
315.817	-13.39
316.033	8.45
316.249	16.41
316.465	32.34
316.68	-9.5
316.896	4.57
317.112	-26.35
317.327	17.71
317.543	25.12
317.758	5.49
317.974	22.34
318.19	15.49
318.405	4.57
318.621	-7.47
318.836	-17.46
319.052	3.09
319.267	4.75
319.483	10.68
319.698	14.01
319.914	47.89
320.129	4.57
320.344	17.71
320.56	6.97
320.775	29
320.99	-5.25
321.206	17.71
321.421	17.34
321.636	25.3
321.852	3.64
322.067	13.27
322.282	2.53
322.498	3.46
322.713	5.49
322.928	23.82
323.143	9.56
323.358	5.86
323.574	10.12
323.789	28.26
324.004	19.01
324.219	-0.25
324.434	-15.98
324.649	-14.13
324.864	8.82
325.079	8.64
325.294	-3.39
325.509	4.2
325.724	17.16
325.939	14.56
326.154	5.12
326.369	40.67
326.584	30.85
326.799	3.46
327.014	4.75
327.229	21.04
327.444	22.34
327.659	9.94
327.873	12.16
328.088	4.2
328.303	13.45
328.518	10.31
328.733	-3.76
328.947	41.22
329.162	9.19
329.377	11.42
329.591	18.08
329.806	12.53
330.021	-0.25
330.235	29.56
330.45	3.09
330.665	1.05
330.879	-15.24
331.094	21.78
331.309	0.86
331.523	19.19
331.738	-10.24
331.952	37.7
332.167	16.78
332.381	18.27
332.596	8.27
332.81	23.45
333.025	-1.91
333.239	-0.99
333.453	-3.39
333.668	24.56
333.882	21.23
334.097	18.64
334.311	-0.43
334.525	12.34
334.74	5.12
334.954	13.45
335.168	7.34
335.382	14.75
335.597	9.01
335.811	11.42
336.025	10.31
336.239	-3.95
336.453	8.45
336.668	-10.43
336.882	14.75
337.096	17.9
337.31	-3.39
337.524	16.78
337.738	17.71
337.952	13.08
338.166	-0.06
338.38	27.71
338.594	10.86
338.808	5.49
339.022	12.16
339.236	9.01
339.45	6.6
339.664	28.08
339.878	10.31
340.092	-4.32
340.306	4.2
340.52	7.16
340.734	18.27
340.948	17.53
341.161	30.85
341.375	11.23
341.589	23.26
341.803	8.82
342.017	9.75
342.23	5.49
342.444	19.56
342.658	10.31
342.871	14.01
343.085	-7.28
343.299	11.6
343.512	13.82
343.726	-18.76
343.94	-2.47
344.153	7.53
344.367	34.93
344.58	2.53
344.794	-0.8
345.008	1.05
345.221	14.38
345.435	-6.17
345.648	26.04
345.862	-4.32
346.075	2.34
346.288	-5.62
346.502	27.71
346.715	-3.21
346.929	9.01
347.142	16.78
347.355	26.6
347.569	-11.35
347.782	11.42
347.995	-9.32
348.209	16.23
348.422	-6.54
348.635	37.15
348.848	-0.62
349.062	13.45
349.275	1.05
349.488	11.79
349.701	31.41
349.914	24.56
350.128	-0.06
350.341	8.08
350.554	-15.24
350.767	21.23
350.98	0.68
351.193	-5.62
351.406	5.68
351.619	26.23
351.832	5.12
352.045	15.49
352.258	-26.16
352.471	28.82
352.684	9.38
352.897	14.38
353.11	-11.91
353.323	28.08
353.536	-10.8
353.748	14.56
353.961	-10.8
354.174	7.34
354.387	0.31
354.6	0.31
354.813	-6.91
355.025	28.26
355.238	10.31
355.451	15.49
355.664	-17.65
355.876	12.71
356.089	12.71
356.302	6.42
356.514	19.01
356.727	13.64
356.94	11.05
357.152	8.64
357.365	-1.91
357.577	13.64
357.79	4.94
358.002	-8.21
358.215	1.97
358.427	9.56
358.64	14.93
358.852	23.45
359.065	-4.87
359.277	14.19
359.49	16.97
359.702	18.82
359.915	16.04
360.127	-8.95
360.339	14.19
360.552	14.38
360.764	-1.17
360.976	6.42
361.189	-12.09
361.401	36.22
361.613	45.11
361.825	16.41
362.038	-0.99
362.25	6.05
362.462	6.79
362.674	-4.32
362.886	16.97
363.099	7.71
363.311	15.86
363.523	24.56
363.735	-9.13
363.947	24.56
364.159	-7.1
364.371	18.64
364.583	33.82
364.795	20.49
365.007	12.9
365.219	-0.8
365.431	6.42
365.643	21.6
365.855	-11.54
366.067	-2.84
366.279	-11.17
366.491	10.86
366.703	-9.32
366.914	18.08
367.126	-21.35
367.338	8.64
367.55	2.9
367.762	22.15
367.974	10.68
368.185	9.56
368.397	8.45
368.609	14.75
368.82	0.31
369.032	33.45
369.244	-15.06
369.456	25.12
369.667	1.79
369.879	30.67
370.09	-15.06
370.302	22.89
370.514	8.27
370.725	28.63
370.937	8.45
371.148	36.22
371.36	28.45
371.571	25.3
371.783	0.12
371.994	-3.02
372.206	-9.5
372.417	32.89
372.629	-18.2
372.84	-6.17
373.051	-7.28
373.263	28.63
373.474	-14.32
373.685	4.01
373.897	16.6
374.108	17.53
374.319	-0.43
374.531	5.12
374.742	-3.39
374.953	21.6
375.164	-9.32
375.375	21.6
375.587	10.49
375.798	30.3
376.009	17.34
376.22	28.45
376.431	-4.87
376.642	20.86
376.853	14.56
377.065	6.97
377.276	4.57
377.487	17.9
377.698	14.75
377.909	-0.06
378.12	16.04
378.331	-1.17
378.542	-17.83
378.753	11.6
378.964	10.49
379.174	6.05
379.385	8.45
379.596	5.86
379.807	3.83
380.018	4.01
380.229	35.3
380.44	57.14
380.65	19.56
380.861	0.68
381.072	25.67
381.283	28.45
381.493	4.38
381.704	2.34
381.915	-10.61
382.126	-9.13
382.336	2.34
382.547	36.22
382.757	-3.21
382.968	4.2
383.179	11.23
383.389	11.97
383.6	-1.17
383.81	-1.54
384.021	37.7
384.231	34.74
384.442	21.23
384.652	-1.73
384.863	11.42
385.073	11.6
385.284	20.86
385.494	-12.28
385.705	7.9
385.915	11.97
386.125	-18.76
386.336	19.38
386.546	-9.69
386.756	17.71
386.967	21.97
387.177	19.93
387.387	6.79
387.598	13.45
387.808	26.6
388.018	9.01
388.228	10.31
388.439	28.45
388.649	4.01
388.859	5.68
389.069	-1.17
389.279	14.75
389.489	16.04
389.699	-7.28
389.909	0.86
390.12	-12.09
390.33	10.86
390.54	18.27
390.75	16.23
390.96	17.16
391.17	16.97
391.38	-2.65
391.59	-25.42
391.799	10.86
392.009	6.6
392.219	25.3
392.429	7.53
392.639	16.04
392.849	11.79
393.059	16.04
393.269	19.19
393.478	16.97
393.688	10.12
393.898	44.92
394.108	-8.39
394.317	5.49
394.527	15.12
394.737	38.26
394.947	4.57
395.156	23.45
395.366	14.38
395.576	15.67
395.785	9.56
395.995	-4.69
396.204	10.86
396.414	16.97
396.624	1.6
396.833	5.31
397.043	1.6
397.252	11.05
397.462	15.49
397.671	15.67
397.881	-9.32
398.09	-1.73
398.299	-3.21
398.509	21.41
398.718	28.45
398.928	10.68
399.137	12.16
399.346	19.38
399.556	6.97
399.765	-15.24
399.974	-10.8
400.184	3.09
400.393	-10.06
400.602	-0.06
400.811	9.01
401.021	10.12
401.23	15.67
401.439	1.23
401.648	5.49
401.857	-0.06
402.066	18.82
402.276	15.67
402.485	8.27
402.694	-3.76
402.903	15.67
403.112	5.31
403.321	0.31
403.53	6.97
403.739	11.23
403.948	11.05
404.157	24.19
404.366	8.27
404.575	21.04
404.784	30.67
404.993	0.49
405.202	34.19
405.411	16.41
405.619	0.31
405.828	-1.91
406.037	21.23
406.246	16.6
406.455	11.05
406.663	-0.43
406.872	29.93
407.081	-26.72
407.29	14.56
407.498	-5.43
407.707	9.01
407.916	27.89
408.124	44.74
408.333	19.01
408.542	-4.69
408.75	-26.35
408.959	-10.24
409.168	9.75
409.376	31.78
409.585	18.27
409.793	28.08
410.002	11.42
410.21	8.08
410.419	18.45
410.627	4.2
410.836	8.27
411.044	17.16
411.253	10.68
411.461	24.93
411.669	21.97
411.878	20.67
412.086	5.86
412.294	8.82
412.503	-14.69
412.711	19.56
412.919	4.94
413.128	13.82
413.336	6.05
413.544	2.72
413.752	22.34
413.961	25.67
414.169	2.72
414.377	18.45
414.585	22.71
414.793	18.82
415.001	11.6
415.209	16.23
415.418	-5.25
415.626	4.01
415.834	-7.47
416.042	29
416.25	-22.46
416.458	7.16
416.666	-1.54
416.874	11.42
417.082	-9.69
417.29	-8.39
417.498	22.15
417.706	3.83
417.913	-4.87
418.121	-20.24
418.329	21.6
418.537	34.19
418.745	13.08
418.953	12.53
419.161	26.04
419.368	23.26
419.576	-9.32
419.784	34.37
419.992	37.52
420.199	-8.21
420.407	-20.24
420.615	22.15
420.822	21.41
421.03	-0.06
421.238	-3.76
421.445	24
421.653	-0.06
421.861	18.08
422.068	21.97
422.276	-5.62
422.483	5.12
422.691	-6.73
422.898	17.16
423.106	-10.43
423.313	10.86
423.521	7.34
423.728	16.41
423.936	10.68
424.143	20.12
424.35	48.07
424.558	1.79
424.765	21.6
424.973	16.6
425.18	29.19
425.387	9.01
425.594	8.45
425.802	37.52
426.009	19.38
426.216	3.46
426.424	33.08
426.631	21.41
426.838	-16.91
427.045	6.42
427.252	34
427.459	16.97
427.667	16.41
427.874	0.31
428.081	18.45
428.288	15.12
428.495	1.42
428.702	17.34
428.909	12.16
429.116	6.05
429.323	19.75
429.53	6.42
429.737	9.75
429.944	13.82
430.151	24.19
430.358	17.71
430.565	30.85
430.772	5.86
430.979	-2.84
431.185	-3.39
431.392	10.12
431.599	19.38
431.806	19.75
432.013	10.31
432.219	30.85
432.426	28.26
432.633	29.74
432.84	17.71
433.046	29.74
433.253	45.29
433.46	18.64
433.666	7.34
433.873	63.62
434.08	43.63
434.286	44.92
434.493	44.92
434.7	37.89
434.906	41.04
435.113	61.22
435.319	59.18
435.526	55.48
435.732	72.14
435.939	63.99
436.145	52.33
436.352	88.43
436.558	68.43
436.765	112.68
436.971	67.14
437.177	96.94
437.384	59.18
437.59	89.72
437.796	114.16
438.003	119.9
438.209	141.74
438.415	122.49
438.622	141.37
438.828	186.92
439.034	188.03
439.24	173.96
439.447	198.76
439.653	206.72
439.859	225.42
440.065	237.83
440.271	247.64
440.477	275.96
440.683	283.18
440.89	285.59
441.096	340.01
441.302	346.68
441.508	350.94
441.714	422.95
441.92	404.62
442.126	448.87
442.332	467.2
442.538	513.66
442.744	544.21
442.95	591.6
443.156	620.3
443.361	682.5
443.567	712.49
443.773	756.18
443.979	784.69
444.185	819.31
444.391	867.62
444.596	924.83
444.802	981.48
445.008	1040.72
445.214	1045.16
445.42	1140.69
445.625	1209.37
445.831	1285.45
446.037	1341.36
446.242	1421.89
446.448	1453.18
446.654	1539.82
446.859	1597.21
447.065	1693.47
447.27	1731.98
447.476	1789.92
447.682	1842.5
447.887	1985.97
448.093	2064.83
448.298	2093.53
448.504	2199.79
448.709	2228.49
448.915	2360.48
449.12	2346.23
449.325	2508.95
449.531	2646.13
449.736	2685.56
449.942	2809.23
450.147	2917.15
450.352	3011.38
450.558	3041.74
450.763	3174.3
450.968	3290.55
451.174	3360.9
451.379	3360.72
451.584	3424.22
451.789	3544.55
451.995	3638.04
452.2	3641
452.405	3761.14
452.61	3794.65
452.815	3981.07
453.02	3930.54
453.226	4037.35
453.431	4139.91
453.636	4198.6
453.841	4188.97
454.046	4393.72
454.251	4483.32
454.456	4520.53
454.661	4497.21
454.866	4536.82
455.071	4582.36
455.276	4708.43
455.481	4641.6
455.686	4710.84
455.891	4786.56
456.095	4758.97
456.3	4786
456.505	4781.93
456.71	4891.34
456.915	4836.73
457.12	4825.62
457.324	4883.56
457.529	4911.7
457.734	4855.8
457.939	4896.34
458.144	4885.97
458.348	4959.47
458.553	4974.28
458.758	4898.56
458.962	4880.23
459.167	4923.55
459.372	4824.69
459.576	4850.8
459.781	4742.87
459.985	4707.14
460.19	4656.41
460.394	4602.73
460.599	4599.4
460.803	4539.41
461.008	4525.9
461.212	4426.3
461.417	4429.08
461.621	4350.22
461.826	4363.54
462.03	4270.06
462.235	4211.93
462.439	4195.64
462.643	4149.35
462.848	4073.27
463.052	4024.95
463.256	3949.6
463.461	3786.32
463.665	3770.77
463.869	3703.57
464.074	3655.81
464.278	3592.68
464.482	3521.04
464.686	3384.97
464.89	3407
465.095	3426.81
465.299	3277.97
465.503	3248.9
465.707	3164.11
465.911	3126.9
466.115	3040.45
466.319	3034.15
466.523	2943.07
466.727	2877.91
466.931	2804.6
467.135	2708.89
467.339	2672.79
467.543	2644.83
467.747	2604.66
467.951	2554.49
468.155	2453.23
468.359	2447.68
468.563	2348.45
468.767	2297.91
468.971	2234.97
469.175	2264.4
469.379	2156.66
469.582	2145.55
469.786	2151.29
469.99	2041.69
470.194	1997.08
470.397	1985.05
470.601	1910.62
470.805	1921.73
471.009	1826.76
471.212	1836.57
471.416	1770.3
471.62	1764.56
471.823	1704.02
472.027	1699.03
472.23	1623.12
472.434	1684.22
472.638	1613.13
472.841	1569.62
473.045	1554.63
473.248	1537.97
473.452	1487.24
473.655	1476.32
473.859	1458.36
474.062	1433.55
474.266	1372.83
474.469	1384.31
474.672	1340.81
474.876	1328.59
475.079	1326.74
475.283	1299.15
475.486	1276.57
475.689	1274.16
475.893	1212.7
476.096	1250.46
476.299	1186.41
