Data from FLMT087451__24__14-18-32-799.txt Node

Date: Tue Jun 04 14:18:32 JST 2024
User: power
Spectrometer: FLMT08745
Trigger mode: 0
Integration Time (sec): 5.000000E-5
Scans to average: 11
Electric dark correction enabled: true
Nonlinearity correction enabled: false
Boxcar width: 0
XAxis mode: Wavelengths
Number of Pixels in Spectrum: 3648
>>>>>Begin Spectral Data<<<<<
194.923	-5.57
195.148	-5.57
195.372	-5.57
195.597	14.05
195.821	-12.79
196.046	-0.57
196.271	16.83
196.495	1.28
196.72	16.46
196.944	-35.56
197.169	0.17
197.393	-14.83
197.618	5.35
197.842	-20.19
198.067	21.27
198.291	-6.12
198.516	15.91
198.74	-3.53
198.964	11.65
199.189	-5.75
199.413	-9.83
199.637	12.02
199.862	13.13
200.086	-4.46
200.31	8.5
200.535	-2.79
200.759	6.65
200.983	2.76
201.207	10.91
201.432	-1.13
201.656	11.83
201.88	-3.16
202.104	-8.9
202.328	3.13
202.552	7.2
202.777	-3.72
203.001	12.76
203.225	-0.76
203.449	18.68
203.673	-8.53
203.897	-7.79
204.121	-7.61
204.345	7.76
204.569	-16.68
204.793	17.02
205.017	10.54
205.241	26.46
205.465	14.42
205.689	9.24
205.912	14.24
206.136	3.69
206.36	-12.23
206.584	0.54
206.808	-2.98
207.032	13.68
207.255	3.13
207.479	12.94
207.703	-1.87
207.927	15.54
208.15	2.39
208.374	9.06
208.598	2.39
208.822	-12.6
209.045	-13.34
209.269	8.5
209.492	9.61
209.716	3.13
209.94	7.57
210.163	4.61
210.387	2.95
210.61	11.28
210.834	5.17
211.057	5.54
211.281	-5.2
211.504	16.65
211.728	-3.35
211.951	-9.64
212.175	2.58
212.398	17.76
212.622	0.35
212.845	26.83
213.068	6.46
213.292	-5.01
213.515	-15.38
213.738	2.76
213.962	-4.64
214.185	-3.53
214.408	-18.9
214.631	-16.86
214.855	-9.83
215.078	4.61
215.301	8.32
215.524	-6.31
215.747	-5.38
215.971	18.13
216.194	2.76
216.417	12.94
216.64	-10.75
216.863	13.31
217.086	-2.98
217.309	11.09
217.532	-19.27
217.755	-3.9
217.978	11.65
218.201	-3.9
218.424	-7.05
218.647	24.79
218.87	19.98
219.093	5.54
219.316	-33.15
219.539	2.95
219.762	-21.49
219.985	17.2
220.207	-23.34
220.43	24.24
220.653	-5.2
220.876	16.83
221.099	-14.64
221.321	7.94
221.544	-7.05
221.767	11.65
221.99	-40.37
222.212	0.73
222.435	-12.6
222.658	-2.42
222.88	0.54
223.103	13.5
223.326	-14.64
223.548	-4.64
223.771	15.72
223.993	19.61
224.216	0.54
224.438	17.02
224.661	-22.97
224.883	-6.68
225.106	10.72
225.328	27.2
225.551	0.54
225.773	-4.27
225.996	-14.09
226.218	21.64
226.44	-20.93
226.663	14.42
226.885	-14.64
227.108	1.47
227.33	0.17
227.552	-3.53
227.774	6.83
227.997	12.02
228.219	-3.72
228.441	1.1
228.663	-4.83
228.886	12.76
229.108	-12.23
229.33	18.31
229.552	-1.13
229.774	6.46
229.996	-10.75
230.219	3.5
230.441	-5.38
230.663	17.2
230.885	4.98
231.107	-4.09
231.329	-3.72
231.551	19.98
231.773	2.21
231.995	-5.38
232.217	-18.34
232.439	-3.72
232.661	6.83
232.883	8.87
233.105	-17.23
233.326	-6.12
233.548	-14.27
233.77	6.09
233.992	-15.94
234.214	16.83
234.436	1.65
234.657	22.76
234.879	-19.08
235.101	3.13
235.323	6.28
235.544	8.32
235.766	-0.39
235.988	5.72
236.21	-2.05
236.431	-11.68
236.653	13.31
236.874	19.42
237.096	-13.9
237.318	21.46
237.539	20.72
237.761	16.46
237.982	4.61
238.204	-11.86
238.425	-26.12
238.647	24.79
238.868	-4.64
239.09	9.98
239.311	5.54
239.533	4.61
239.754	-3.35
239.975	7.76
240.197	21.64
240.418	8.87
240.64	1.65
240.861	14.61
241.082	-10.38
241.304	19.42
241.525	-12.79
241.746	1.1
241.967	2.95
242.189	11.83
242.41	9.8
242.631	22.57
242.852	-3.9
243.073	-2.61
243.294	4.06
243.516	11.65
243.737	5.72
243.958	5.72
244.179	-1.13
244.4	-1.13
244.621	0.35
244.842	5.54
245.063	-9.64
245.284	22.57
245.505	-15.75
245.726	-4.46
245.947	-17.05
246.168	14.05
246.389	-3.35
246.61	2.95
246.831	3.87
247.052	5.35
247.272	-13.53
247.493	13.68
247.714	5.35
247.935	15.72
248.156	-4.09
248.376	18.87
248.597	6.09
248.818	8.69
249.039	7.94
249.259	2.02
249.48	2.76
249.701	-4.46
249.921	-1.13
250.142	-0.39
250.363	-5.01
250.583	21.83
250.804	-9.27
251.025	12.02
251.245	-7.79
251.466	12.57
251.686	-15.01
251.907	24.98
252.127	-25.01
252.348	-5.75
252.568	-4.09
252.789	18.87
253.009	6.28
253.23	12.76
253.45	-15.2
253.67	-11.68
253.891	-9.83
254.111	14.42
254.331	9.61
254.552	8.69
254.772	-5.75
254.992	-10.2
255.213	0.17
255.433	21.09
255.653	-17.79
255.873	16.28
256.093	-8.53
256.314	16.65
256.534	-1.13
256.754	-2.05
256.974	-5.01
257.194	-4.83
257.414	-9.46
257.634	15.72
257.855	-1.68
258.075	11.65
258.295	3.69
258.515	6.09
258.735	6.65
258.955	-9.64
259.175	-7.98
259.395	-5.57
259.615	-21.3
259.835	0.91
260.054	-17.79
260.274	-0.57
260.494	5.72
260.714	27.57
260.934	-16.68
261.154	4.43
261.374	-8.53
261.593	-0.94
261.813	-36.86
262.033	-8.16
262.253	7.02
262.472	13.31
262.692	0.91
262.912	14.42
263.132	-15.01
263.351	7.39
263.571	3.13
263.791	1.1
264.01	-20.75
264.23	25.16
264.449	14.61
264.669	4.43
264.888	-0.02
265.108	37.01
265.328	-20.38
265.547	4.98
265.767	-33.15
265.986	8.69
266.205	13.5
266.425	6.83
266.644	6.83
266.864	8.5
267.083	-1.68
267.303	-6.12
267.522	9.43
267.741	8.5
267.961	11.65
268.18	-0.57
268.399	7.94
268.618	21.27
268.838	-3.35
269.057	7.57
269.276	-6.49
269.495	20.35
269.715	5.17
269.934	-18.34
270.153	-12.6
270.372	6.46
270.591	13.5
270.81	-3.16
271.029	24.05
271.249	6.28
271.468	-8.9
271.687	14.98
271.906	-2.98
272.125	3.69
272.344	0.17
272.563	11.28
272.782	-1.87
273.001	8.13
273.22	7.2
273.439	1.47
273.657	4.24
273.876	1.1
274.095	1.1
274.314	-15.2
274.533	1.28
274.752	-7.79
274.971	10.72
275.189	9.8
275.408	6.28
275.627	17.94
275.846	-7.24
276.064	4.98
276.283	-2.79
276.502	14.24
276.72	-7.42
276.939	19.61
277.158	-15.94
277.376	-0.2
277.595	-8.53
277.814	10.17
278.032	10.72
278.251	12.2
278.469	-14.64
278.688	-10.57
278.906	-19.27
279.125	5.72
279.343	1.65
279.562	11.09
279.78	-8.9
279.999	14.42
280.217	-11.49
280.435	-2.42
280.654	-17.05
280.872	-8.35
281.091	3.32
281.309	-14.83
281.527	-15.38
281.746	12.39
281.964	-26.86
282.182	6.09
282.4	-20.75
282.619	18.68
282.837	-14.64
283.055	23.68
283.273	-4.83
283.491	7.94
283.71	-28.9
283.928	19.98
284.146	-2.98
284.364	28.12
284.582	-0.57
284.8	12.76
285.018	0.73
285.236	-20.93
285.454	4.8
285.672	8.32
285.89	-1.68
286.108	-7.79
286.326	7.39
286.544	-3.9
286.762	-12.05
286.98	9.61
287.198	-0.57
287.416	11.46
287.634	-10.01
287.851	3.69
288.069	-9.83
288.287	34.05
288.505	5.17
288.723	11.46
288.94	-30.19
289.158	-3.35
289.376	-0.2
289.594	-0.94
289.811	-20.01
290.029	11.46
290.247	6.83
290.464	16.09
290.682	-2.61
290.9	2.21
291.117	12.02
291.335	-1.87
291.552	-16.49
291.77	22.2
291.987	-8.53
292.205	14.98
292.422	-12.23
292.64	12.02
292.857	-0.94
293.075	6.65
293.292	-10.75
293.51	10.17
293.727	-12.42
293.945	-3.72
294.162	-7.61
294.379	16.28
294.597	4.8
294.814	17.57
295.031	-23.34
295.249	10.17
295.466	22.2
295.683	-0.2
295.9	-5.94
296.118	-0.76
296.335	-23.53
296.552	25.35
296.769	-3.72
296.986	6.65
297.204	8.5
297.421	-8.72
297.638	-0.02
297.855	13.68
298.072	4.98
298.289	8.13
298.506	-2.05
298.723	-21.12
298.94	-0.76
299.157	-2.79
299.374	14.05
299.591	2.95
299.808	5.54
300.025	11.28
300.242	-12.05
300.459	-10.2
300.676	-30.19
300.893	30.35
301.109	2.95
301.326	-3.53
301.543	-5.94
301.76	11.28
301.977	-1.68
302.193	-5.38
302.41	-6.31
302.627	-8.53
302.844	-15.94
303.06	-3.35
303.277	-5.75
303.494	-2.79
303.71	4.06
303.927	10.35
304.144	11.83
304.36	27.01
304.577	-12.05
304.793	0.91
305.01	10.91
305.227	-0.2
305.443	6.28
305.66	8.32
305.876	4.24
306.093	7.02
306.309	-1.87
306.526	23.5
306.742	-5.57
306.958	6.09
307.175	4.98
307.391	33.86
307.608	2.39
307.824	19.61
308.04	-11.68
308.257	6.09
308.473	12.57
308.689	-5.75
308.905	-9.09
309.122	2.58
309.338	-23.16
309.554	10.91
309.77	-6.12
309.986	-6.68
310.203	-16.12
310.419	29.6
310.635	-15.94
310.851	4.06
311.067	-0.94
311.283	1.47
311.499	1.84
311.715	5.72
311.931	-23.71
312.147	12.02
312.363	-2.61
312.579	-13.9
312.795	-30.01
313.011	3.32
313.227	13.68
313.443	7.02
313.659	-10.75
313.875	22.94
314.091	0.73
314.307	14.05
314.523	0.91
314.738	17.94
314.954	-7.05
315.17	7.57
315.386	-14.09
315.602	14.24
315.817	2.02
316.033	13.68
316.249	-6.68
316.465	-21.49
316.68	-14.83
316.896	9.8
317.112	20.9
317.327	15.72
317.543	-3.9
317.758	12.2
317.974	-23.9
318.19	7.39
318.405	-9.27
318.621	22.57
318.836	-1.87
319.052	-4.46
319.267	18.31
319.483	16.46
319.698	14.05
319.914	20.72
320.129	-6.12
320.344	-5.01
320.56	-16.68
320.775	15.16
320.99	7.2
321.206	-6.87
321.421	-2.61
321.636	-1.68
321.852	-9.46
322.067	24.24
322.282	-0.76
322.498	10.17
322.713	22.57
322.928	0.54
323.143	4.06
323.358	12.02
323.574	-26.3
323.789	3.32
324.004	-6.12
324.219	-4.64
324.434	-17.05
324.649	-6.12
324.864	-25.56
325.079	-10.57
325.294	8.5
325.509	33.49
325.724	-15.94
325.939	-0.57
326.154	-2.61
326.369	11.83
326.584	5.17
326.799	3.13
327.014	7.94
327.229	7.02
327.444	-4.27
327.659	10.17
327.873	8.32
328.088	11.65
328.303	-3.9
328.518	19.98
328.733	-14.83
328.947	-7.98
329.162	0.73
329.377	-9.64
329.591	-19.82
329.806	-2.42
330.021	-10.94
330.235	8.69
330.45	-7.98
330.665	-2.79
330.879	-3.9
331.094	-11.49
331.309	-10.2
331.523	27.57
331.738	4.61
331.952	-7.42
332.167	-2.61
332.381	5.17
332.596	5.35
332.81	18.13
333.025	-22.23
333.239	-12.79
333.453	-7.61
333.668	-0.02
333.882	-1.87
334.097	-20.38
334.311	-28.15
334.525	13.13
334.74	1.65
334.954	21.83
335.168	-22.6
335.382	15.16
335.597	-0.02
335.811	13.13
336.025	23.68
336.239	5.17
336.453	-5.75
336.668	7.57
336.882	-1.68
337.096	28.68
337.31	-19.08
337.524	-9.27
337.738	-9.64
337.952	10.72
338.166	-20.56
338.38	18.87
338.594	-17.23
338.808	0.17
339.022	-17.05
339.236	-2.79
339.45	-13.53
339.664	0.73
339.878	7.2
340.092	3.13
340.306	3.69
340.52	-13.9
340.734	-7.05
340.948	-8.16
341.161	-8.16
341.375	-0.57
341.589	-7.61
341.803	1.47
342.017	8.13
342.23	12.02
342.444	-7.98
342.658	18.31
342.871	-3.53
343.085	-5.57
343.299	3.13
343.512	-5.57
343.726	-6.68
343.94	18.13
344.153	-21.49
344.367	-10.38
344.58	-5.2
344.794	16.28
345.008	-15.94
345.221	5.91
345.435	5.72
345.648	27.38
345.862	-12.42
346.075	4.61
346.288	-13.53
346.502	22.57
346.715	-0.94
346.929	7.02
347.142	9.43
347.355	5.35
347.569	-5.94
347.782	-4.64
347.995	-26.67
348.209	7.2
348.422	0.73
348.635	-3.16
348.848	0.73
349.062	-8.9
349.275	20.72
349.488	9.61
349.701	-12.23
349.914	12.57
350.128	-20.56
350.341	11.09
350.554	-2.42
350.767	8.87
350.98	-2.79
351.193	10.17
351.406	-4.09
351.619	-2.42
351.832	-2.42
352.045	11.09
352.258	7.02
352.471	-6.68
352.684	-2.42
352.897	-4.64
353.11	22.38
353.323	0.54
353.536	-1.68
353.748	13.68
353.961	-15.75
354.174	4.8
354.387	6.28
354.6	0.35
354.813	-15.75
355.025	0.73
355.238	-12.05
355.451	6.83
355.664	-43.15
355.876	9.98
356.089	16.65
356.302	-7.42
356.514	-11.12
356.727	-22.23
356.94	-9.09
357.152	-1.68
357.365	-6.49
357.577	-5.75
357.79	4.24
358.002	-11.86
358.215	-21.12
358.427	2.76
358.64	-21.86
358.852	5.35
359.065	5.91
359.277	-3.16
359.49	-16.12
359.702	-5.2
359.915	-25.01
360.127	7.02
360.339	-21.3
360.552	6.83
360.764	-13.53
360.976	8.32
361.189	-7.79
361.401	9.24
361.613	-10.94
361.825	20.16
362.038	-3.9
362.25	-2.61
362.462	12.94
362.674	2.76
362.886	-23.16
363.099	27.01
363.311	-18.16
363.523	13.13
363.735	0.54
363.947	-7.24
364.159	-9.64
364.371	-5.57
364.583	-7.05
364.795	14.24
365.007	8.32
365.219	20.72
365.431	-19.08
365.643	4.06
365.855	6.46
366.067	-15.01
366.279	-19.27
366.491	-5.75
366.703	5.72
366.914	-12.42
367.126	5.35
367.338	-14.09
367.55	-2.79
367.762	8.87
367.974	-12.79
368.185	1.47
368.397	6.46
368.609	5.35
368.82	-10.2
369.032	26.09
369.244	7.2
369.456	8.69
369.667	-9.83
369.879	23.31
370.09	-21.49
370.302	6.83
370.514	-3.16
370.725	-5.57
370.937	-17.42
371.148	0.35
371.36	-3.35
371.571	3.13
371.783	8.13
371.994	-1.68
372.206	-9.64
372.417	-0.2
372.629	-0.57
372.84	2.02
373.051	-12.42
373.263	-18.53
373.474	-20.93
373.685	-16.31
373.897	-24.45
374.108	-2.24
374.319	-17.05
374.531	-7.98
374.742	3.87
374.953	-5.94
375.164	-14.64
375.375	13.31
375.587	13.13
375.798	0.17
376.009	-9.27
376.22	-3.16
376.431	-12.6
376.642	6.46
376.853	-11.31
377.065	4.24
377.276	-15.57
377.487	2.76
377.698	-12.6
377.909	-1.68
378.12	3.69
378.331	-17.6
378.542	-10.75
378.753	-6.12
378.964	-22.23
379.174	10.91
379.385	-2.79
379.596	7.76
379.807	-36.3
380.018	4.61
380.229	4.24
380.44	-1.87
380.65	-12.97
380.861	16.65
381.072	-10.94
381.283	1.28
381.493	-4.09
381.704	10.91
381.915	10.54
382.126	-14.09
382.336	-1.31
382.547	-6.49
382.757	-2.79
382.968	-2.79
383.179	2.39
383.389	14.24
383.6	-37.23
383.81	13.87
384.021	-2.61
384.231	-13.71
384.442	-2.42
384.652	18.87
384.863	-20.56
385.073	22.2
385.284	-12.42
385.494	13.5
385.705	4.24
385.915	-10.2
386.125	-0.39
386.336	-3.72
386.546	17.39
386.756	28.12
386.967	9.24
387.177	-1.87
387.387	-22.42
387.598	7.02
387.808	-26.3
388.018	6.65
388.228	-8.9
388.439	10.35
388.649	-24.27
388.859	17.57
389.069	-0.76
389.279	10.35
389.489	-3.9
389.699	22.38
389.909	-25.01
390.12	0.35
390.33	-26.86
390.54	9.61
390.75	-30.93
390.96	-7.24
391.17	4.98
391.38	4.06
391.59	-24.08
391.799	8.87
392.009	-10.2
392.219	-7.05
392.429	-16.68
392.639	-4.27
392.849	2.95
393.059	8.5
393.269	-7.98
393.478	-13.53
393.688	-12.97
393.898	-14.64
394.108	-10.75
394.317	-10.57
394.527	-12.42
394.737	-2.79
394.947	3.32
395.156	6.46
395.366	-18.34
395.576	8.5
395.785	10.54
395.995	27.57
396.204	-7.98
396.414	-10.94
396.624	-3.9
396.833	5.17
397.043	-8.16
397.252	-6.68
397.462	-1.13
397.671	25.53
397.881	0.35
398.09	3.13
398.299	-16.68
398.509	4.43
398.718	-19.82
398.928	23.5
399.137	-6.68
399.346	40.53
399.556	-28.34
399.765	-10.01
399.974	-6.68
400.184	1.47
400.393	-13.34
400.602	-18.53
400.811	3.13
401.021	-4.09
401.23	-11.86
401.439	-8.35
401.648	-0.57
401.857	-11.31
402.066	7.39
402.276	13.68
402.485	2.21
402.694	10.91
402.903	-11.86
403.112	-9.64
403.321	-18.16
403.53	-9.46
403.739	-8.53
403.948	8.5
404.157	-1.87
404.366	11.83
404.575	-28.34
404.784	-1.68
404.993	-10.01
405.202	17.76
405.411	-1.68
405.619	5.54
405.828	5.17
406.037	-1.5
406.246	-24.64
406.455	10.91
406.663	-20.93
406.872	-9.09
407.081	-11.31
407.29	14.24
407.498	-13.71
407.707	9.98
407.916	2.39
408.124	14.98
408.333	5.17
408.542	-16.68
408.75	-1.68
408.959	0.73
409.168	1.28
409.376	38.31
409.585	-19.64
409.793	-2.05
410.002	-0.02
410.21	8.13
410.419	-11.49
410.627	9.06
410.836	2.76
411.044	4.24
411.253	13.13
411.461	22.94
411.669	21.83
411.878	26.64
412.086	8.69
412.294	24.98
412.503	40.34
412.711	34.97
412.919	26.64
413.128	29.05
413.336	8.13
413.544	24.79
413.752	17.94
413.961	31.46
414.169	16.28
414.377	34.79
414.585	12.02
414.793	50.34
415.001	30.16
415.209	29.79
415.418	26.83
415.626	61.26
415.834	48.49
416.042	62.74
416.25	50.89
416.458	53.49
416.666	77.18
416.874	59.41
417.082	73.29
417.29	71.81
417.498	101.25
417.706	92.73
417.913	67.56
418.121	91.44
418.329	96.25
418.537	89.59
418.745	99.21
418.953	62.74
419.161	86.44
419.368	119.95
419.576	123.46
419.784	120.32
419.992	156.79
420.199	140.68
420.407	162.34
420.615	153.64
420.822	184.74
421.03	176.41
421.238	228.06
421.445	227.32
421.653	211.95
421.861	225.65
422.068	253.61
422.276	296.37
422.483	296.37
422.691	315.99
422.898	342.28
423.106	343.02
423.313	385.05
423.521	389.67
423.728	454.47
423.936	400.97
424.143	500.57
424.35	515.19
424.558	558.88
424.765	538.15
424.973	617.01
425.18	585.91
425.387	749
425.594	695.69
425.802	784.55
426.009	759.74
426.216	898.22
426.424	822.5
426.631	1030.4
426.838	955.61
427.045	1122.59
427.252	1085.38
427.459	1248.1
427.667	1199.97
427.874	1417.12
428.081	1268.84
428.288	1523.94
428.495	1507.28
428.702	1754.05
428.909	1725.36
429.116	1825.14
429.323	1909.93
429.53	1970.47
429.737	2141.15
429.944	2254.26
430.151	2262.78
430.358	2429.02
430.565	2344.79
430.772	2655.8
430.979	2674.13
431.185	2914.24
431.392	2900.54
431.599	3182.49
431.806	3107.7
432.013	3400.01
432.219	3391.49
432.426	3566.99
432.633	3612.91
432.84	3875.41
433.046	3874.12
433.253	4196.98
433.46	4161.99
433.666	4437.27
433.873	4536.68
434.08	4706.26
434.286	4981.54
434.493	5212.76
434.7	5120.76
434.906	5393.63
435.113	5551.73
435.319	5847.93
435.526	5893.29
435.732	6152.83
435.939	6165.42
436.145	6524.57
436.352	6664.71
436.558	6971.83
436.765	6998.68
436.971	7363
437.177	7408.36
437.384	8012.98
437.59	7842.11
437.796	8057.6
438.003	8299.93
438.209	8655
438.415	8803.65
438.622	9210.01
438.828	9435.49
439.034	9726.14
439.24	9829.62
439.447	10280.41
439.653	10347.61
439.859	11010.17
440.065	10892.25
440.271	11496.87
440.477	11537.23
440.683	12111.67
440.89	12444.71
441.096	13205.4
441.302	12979.73
441.508	13524.93
441.714	13785.58
441.92	14300.42
442.126	14583.48
442.332	15332.31
442.538	15569.46
442.744	15955.08
442.95	16525.45
443.156	16669.48
443.361	17347.04
443.567	17958.14
443.773	18212.87
443.979	18852.85
444.185	19130.36
444.391	19821.62
444.596	20298.87
444.802	20878.13
445.008	21224.5
445.214	22067.2
445.42	22181.05
445.625	23436.76
445.831	23639.29
446.037	24564.92
446.242	25002.74
446.448	25404.1
446.654	25840.99
446.859	26218.83
447.065	26900.47
447.27	27485.47
447.476	27765.01
447.682	28372.04
447.887	29168.26
448.093	29882.48
448.298	29589.98
448.504	30710.55
448.709	30805.7
448.915	31288.51
449.12	31162.07
449.325	32111.03
449.531	32787.29
449.736	32259.68
449.942	32850.24
450.147	33201.98
450.352	33490.03
450.558	33153.66
450.763	33177.72
450.968	33698.3
451.174	34065.96
451.379	33280.65
451.584	33122.93
451.789	33591.3
451.995	33581.11
452.2	33338.04
452.405	33543.35
452.61	32882.08
452.815	33305.09
453.02	32243.95
453.226	32304.3
453.431	32246.54
453.636	31810.75
453.841	31057.66
454.046	30943.81
454.251	30921.78
454.456	30366.77
454.661	29774.92
454.866	29473.17
455.071	28937.97
455.276	28731.37
455.481	27827.21
455.686	27764.82
455.891	27877.01
456.095	26843.64
456.3	26689.24
456.505	25976.69
456.71	25850.62
456.915	25259.51
457.12	24815.02
457.324	24227.8
457.529	24268.35
457.734	23369.74
457.939	23427.32
458.144	22922.29
458.348	22950.06
458.553	22648.86
458.758	22141.43
458.962	21997.41
459.167	21898.18
459.372	21377.42
459.576	21678.25
459.781	21151.56
459.985	21025.31
460.19	20874.99
460.394	20827.59
460.599	20678.38
460.803	20425.68
461.008	20315.9
461.212	20172.06
461.417	20139.66
461.621	20021.55
461.826	19922.51
462.03	20383.48
462.235	19967.5
462.439	20247.96
462.643	19963.05
462.848	20205.94
463.052	20334.42
463.256	20404.58
463.461	19996.56
463.665	20399.21
463.869	20333.31
464.074	20392.36
464.278	20164.84
464.482	20354.23
464.686	20409.21
464.89	20707.08
465.095	20760.76
465.299	20620.62
465.503	20447.16
465.707	20549.53
465.911	20542.5
466.115	20614.51
466.319	20909.97
466.523	20707.26
466.727	20681.16
466.931	20716.33
467.135	20622.47
467.339	20549.72
467.543	20923.86
467.747	20769.46
467.951	20781.68
468.155	20625.25
468.359	20625.07
468.563	20735.96
468.767	20091.72
468.971	20171.88
469.175	20361.08
469.379	20271.84
469.582	20164.66
469.786	20198.72
469.99	20028.77
470.194	19936.77
470.397	19785.15
470.601	19614.46
